ENLIGHTEN Version,1.7.2
Measurement ID,20190716-221813-616165-WP-00438
Serial Number,WP-00438
Label,4mm HDPE
Integration Time,2000
Timestamp,2019-07-16 22:18:13.616165
Note,
Temperature,-99
CCD C0,807.1400146484375
CCD C1,0.11761099845170975
CCD C2,-1.6414700439781882e-05
CCD C3,2.3293600381890656e-09
CCD Offset,0
CCD Gain,8.0
Laser Wavelength,785.0
Laser Enable,True
Laser Power,100.0
Laser Temperature,-99
Pixel Count,1952

Wavenumber,Processed
349.43,0.00
351.23,0.00
353.04,0.00
354.84,7257.00
356.64,6175.00
358.44,7243.00
360.24,6215.00
362.04,7340.00
363.84,6551.00
365.64,7383.00
367.43,6454.00
369.23,7845.00
371.02,6623.00
372.81,7743.00
374.60,6522.00
376.39,7464.00
378.18,6426.00
379.97,7562.00
381.76,6484.00
383.55,7738.00
385.33,6301.00
387.11,7436.00
388.90,6624.00
390.68,7335.00
392.46,6230.00
394.24,7630.00
396.02,6355.00
397.80,7147.00
399.58,6246.00
401.35,7451.00
403.13,6315.00
404.90,7227.00
406.68,6328.00
408.45,7502.00
410.22,6405.00
411.99,7448.00
413.76,6578.00
415.53,7499.00
417.30,6496.00
419.06,7384.00
420.83,6297.00
422.59,7563.00
424.35,6484.00
426.12,7333.00
427.88,6418.00
429.64,7558.00
431.40,6238.00
433.16,7351.00
434.91,6162.00
436.67,7558.00
438.43,6433.00
440.18,7369.00
441.93,6254.00
443.69,7428.00
445.44,6376.00
447.19,7425.00
448.94,6606.00
450.69,7277.00
452.43,6489.00
454.18,7397.00
455.92,6342.00
457.67,7068.00
459.41,6016.00
461.16,7021.00
462.90,6179.00
464.64,7149.00
466.38,6212.00
468.12,7126.00
469.85,6107.00
471.59,7093.00
473.33,6138.00
475.06,7013.00
476.80,5866.00
478.53,7026.00
480.26,5977.00
481.99,7062.00
483.72,6179.00
485.45,6915.00
487.18,6031.00
488.91,7169.00
490.63,6097.00
492.36,6922.00
494.08,6161.00
495.80,6904.00
497.53,5957.00
499.25,6860.00
500.97,5842.00
502.69,6904.00
504.41,5820.00
506.12,6690.00
507.84,5658.00
509.56,6603.00
511.27,5795.00
512.98,6819.00
514.70,5961.00
516.41,6837.00
518.12,6165.00
519.83,6799.00
521.54,5877.00
523.25,6714.00
524.95,5833.00
526.66,6424.00
528.36,5587.00
530.07,6757.00
531.77,5891.00
533.47,6677.00
535.18,5651.00
536.88,6459.00
538.58,5610.00
540.27,6637.00
541.97,5671.00
543.67,6704.00
545.36,5490.00
547.06,6595.00
548.75,5707.00
550.45,6510.00
552.14,5644.00
553.83,6382.00
555.52,5533.00
557.21,6465.00
558.90,5665.00
560.58,6379.00
562.27,5618.00
563.96,6499.00
565.64,5564.00
567.32,6700.00
569.01,5662.00
570.69,6362.00
572.37,5492.00
574.05,6512.00
575.73,5428.00
577.41,6309.00
579.08,5567.00
580.76,6454.00
582.44,5657.00
584.11,6592.00
585.78,5591.00
587.46,6466.00
589.13,5520.00
590.80,6512.00
592.47,5562.00
594.14,6405.00
595.81,5648.00
597.47,6558.00
599.14,5458.00
600.80,6650.00
602.47,5602.00
604.13,6415.00
605.79,5497.00
607.46,6587.00
609.12,5605.00
610.78,6417.00
612.44,5518.00
614.09,6524.00
615.75,5313.00
617.41,6367.00
619.06,5544.00
620.72,6522.00
622.37,5545.00
624.02,6204.00
625.67,5624.00
627.33,6320.00
628.97,5510.00
630.62,6456.00
632.27,5480.00
633.92,6422.00
635.57,5510.00
637.21,6200.00
638.86,5493.00
640.50,6209.00
642.14,5458.00
643.78,5960.00
645.42,5418.00
647.06,6319.00
648.70,5238.00
650.34,6192.00
651.98,5165.00
653.62,6185.00
655.25,5341.00
656.89,6128.00
658.52,5445.00
660.15,5918.00
661.79,5218.00
663.42,5896.00
665.05,5203.00
666.68,6168.00
668.31,5186.00
669.93,5809.00
671.56,5046.00
673.19,5792.00
674.81,5003.00
676.43,5716.00
678.06,5216.00
679.68,5836.00
681.30,5052.00
682.92,5843.00
684.54,5279.00
686.16,5834.00
687.78,5238.00
689.40,5703.00
691.01,5109.00
692.63,5922.00
694.24,5016.00
695.86,5467.00
697.47,5212.00
699.08,5718.00
700.69,5000.00
702.30,5929.00
703.91,4782.00
705.52,5602.00
707.13,4975.00
708.74,5667.00
710.34,5208.00
711.95,5835.00
713.55,5073.00
715.15,5623.00
716.76,4760.00
718.36,5812.00
719.96,5084.00
721.56,5900.00
723.16,5139.00
724.76,5856.00
726.35,5078.00
727.95,5987.00
729.55,5117.00
731.14,5944.00
732.73,4923.00
734.33,5815.00
735.92,5131.00
737.51,5811.00
739.10,5165.00
740.69,5876.00
742.28,5245.00
743.87,5939.00
745.46,5296.00
747.04,6031.00
748.63,5071.00
750.21,5964.00
751.80,5207.00
753.38,5950.00
754.96,5119.00
756.54,5911.00
758.12,5193.00
759.70,6028.00
761.28,5106.00
762.86,5932.00
764.44,5398.00
766.01,5986.00
767.59,5325.00
769.16,5912.00
770.74,5118.00
772.31,6033.00
773.88,5473.00
775.45,6166.00
777.02,5218.00
778.59,6322.00
780.16,5213.00
781.73,6462.00
783.30,5370.00
784.86,6144.00
786.43,5319.00
787.99,6232.00
789.56,5353.00
791.12,6366.00
792.68,5378.00
794.24,6100.00
795.80,5447.00
797.36,6221.00
798.92,5456.00
800.48,6387.00
802.04,5652.00
803.59,6278.00
805.15,5647.00
806.70,6420.00
808.26,5686.00
809.81,6435.00
811.36,5647.00
812.91,6294.00
814.46,5828.00
816.01,6501.00
817.56,5854.00
819.11,6608.00
820.66,5806.00
822.20,6403.00
823.75,5835.00
825.30,6615.00
826.84,5883.00
828.38,6623.00
829.93,5911.00
831.47,6676.00
833.01,5684.00
834.55,6793.00
836.09,5743.00
837.63,7094.00
839.16,5837.00
840.70,6703.00
842.24,6058.00
843.77,6855.00
845.31,6138.00
846.84,7030.00
848.37,6134.00
849.90,6947.00
851.44,6069.00
852.97,7200.00
854.50,5988.00
856.03,7136.00
857.55,6279.00
859.08,6980.00
860.61,6176.00
862.13,7061.00
863.66,6340.00
865.18,7519.00
866.70,6462.00
868.23,7289.00
869.75,6487.00
871.27,7346.00
872.79,6467.00
874.31,7220.00
875.83,6554.00
877.35,7280.00
878.86,6217.00
880.38,7146.00
881.89,6508.00
883.41,7262.00
884.92,6408.00
886.44,7311.00
887.95,6449.00
889.46,7097.00
890.97,6197.00
892.48,7101.00
893.99,6333.00
895.50,7128.00
897.01,6198.00
898.51,7102.00
900.02,6171.00
901.52,6809.00
903.03,6239.00
904.53,7092.00
906.04,6004.00
907.54,6986.00
909.04,6088.00
910.54,7165.00
912.04,6026.00
913.54,6795.00
915.04,5947.00
916.53,6751.00
918.03,5833.00
919.53,6786.00
921.02,5852.00
922.52,6709.00
924.01,5811.00
925.50,6588.00
927.00,5737.00
928.49,6665.00
929.98,5694.00
931.47,6405.00
932.96,5848.00
934.44,6725.00
935.93,5574.00
937.42,6390.00
938.90,5431.00
940.39,6224.00
941.87,5587.00
943.36,6086.00
944.84,5625.00
946.32,6265.00
947.80,5559.00
949.29,6089.00
950.77,5517.00
952.24,6287.00
953.72,5382.00
955.20,6247.00
956.68,5326.00
958.15,5999.00
959.63,5461.00
961.10,6136.00
962.58,5308.00
964.05,6132.00
965.52,5438.00
967.00,6211.00
968.47,5244.00
969.94,6033.00
971.41,5456.00
972.87,6025.00
974.34,5160.00
975.81,5928.00
977.28,5261.00
978.74,5920.00
980.21,5382.00
981.67,5941.00
983.13,5047.00
984.60,5994.00
986.06,5277.00
987.52,6020.00
988.98,5306.00
990.44,6044.00
991.90,5314.00
993.36,6030.00
994.82,5123.00
996.27,5892.00
997.73,5355.00
999.18,6080.00
1000.64,5201.00
1002.09,5980.00
1003.55,5171.00
1005.00,6130.00
1006.45,5335.00
1007.90,5910.00
1009.35,5470.00
1010.80,6317.00
1012.25,5402.00
1013.70,6155.00
1015.14,5268.00
1016.59,5953.00
1018.04,5459.00
1019.48,6235.00
1020.93,5366.00
1022.37,6311.00
1023.81,5658.00
1025.25,6362.00
1026.70,5598.00
1028.14,6392.00
1029.58,5903.00
1031.02,6692.00
1032.45,6301.00
1033.89,7312.00
1035.33,6793.00
1036.77,8095.00
1038.20,7914.00
1039.64,9420.00
1041.07,8843.00
1042.50,10328.00
1043.94,9471.00
1045.37,10447.00
1046.80,9817.00
1048.23,10697.00
1049.66,9857.00
1051.09,10668.00
1052.52,9882.00
1053.95,10817.00
1055.37,9910.00
1056.80,11081.00
1058.23,10182.00
1059.65,11394.00
1061.08,10457.00
1062.50,11384.00
1063.92,10255.00
1065.34,10843.00
1066.76,9912.00
1068.19,10700.00
1069.61,9508.00
1071.02,10201.00
1072.44,9052.00
1073.86,9662.00
1075.28,8570.00
1076.69,9418.00
1078.11,8381.00
1079.53,8909.00
1080.94,8079.00
1082.35,8488.00
1083.77,7842.00
1085.18,8198.00
1086.59,7477.00
1088.00,8114.00
1089.41,7353.00
1090.82,8051.00
1092.23,7128.00
1093.64,7979.00
1095.04,7162.00
1096.45,7921.00
1097.86,7459.00
1099.26,8812.00
1100.67,8285.00
1102.07,9160.00
1103.47,9117.00
1104.88,10806.00
1106.28,10176.00
1107.68,11425.00
1109.08,11141.00
1110.48,12489.00
1111.88,11528.00
1113.28,12358.00
1114.67,11667.00
1116.07,12002.00
1117.47,11112.00
1118.86,12133.00
1120.26,10747.00
1121.65,11781.00
1123.05,10946.00
1124.44,11975.00
1125.83,10649.00
1127.22,12007.00
1128.61,10648.00
1130.00,11609.00
1131.39,10493.00
1132.78,11555.00
1134.17,10191.00
1135.56,10573.00
1136.94,9525.00
1138.33,10216.00
1139.72,9071.00
1141.10,9659.00
1142.48,8609.00
1143.87,9502.00
1145.25,8183.00
1146.63,9409.00
1148.01,8504.00
1149.39,9145.00
1150.77,7929.00
1152.15,8626.00
1153.53,7393.00
1154.91,8190.00
1156.29,7376.00
1157.66,7983.00
1159.04,7087.00
1160.41,7695.00
1161.79,7197.00
1163.16,7764.00
1164.54,6893.00
1165.91,7646.00
1167.28,6917.00
1168.65,7681.00
1170.02,6778.00
1171.39,7385.00
1172.76,6662.00
1174.13,7337.00
1175.50,6621.00
1176.86,7234.00
1178.23,6629.00
1179.60,6959.00
1180.96,6273.00
1182.33,7238.00
1183.69,6324.00
1185.05,7018.00
1186.42,6021.00
1187.78,6861.00
1189.14,6088.00
1190.50,6729.00
1191.86,5843.00
1193.22,6636.00
1194.58,6033.00
1195.94,6695.00
1197.29,6222.00
1198.65,6641.00
1200.01,5664.00
1201.36,6668.00
1202.72,5903.00
1204.07,6379.00
1205.42,5735.00
1206.78,6460.00
1208.13,5777.00
1209.48,6299.00
1210.83,5787.00
1212.18,6456.00
1213.53,5524.00
1214.88,6439.00
1216.23,5517.00
1217.58,6288.00
1218.92,5643.00
1220.27,6300.00
1221.61,5642.00
1222.96,6342.00
1224.30,5580.00
1225.65,6086.00
1226.99,5582.00
1228.33,6170.00
1229.67,5383.00
1231.01,6257.00
1232.36,5541.00
1233.70,6150.00
1235.03,5464.00
1236.37,6070.00
1237.71,5524.00
1239.05,6121.00
1240.38,5539.00
1241.72,6158.00
1243.06,5541.00
1244.39,6135.00
1245.72,5810.00
1247.06,6180.00
1248.39,5695.00
1249.72,6463.00
1251.05,6034.00
1252.39,6325.00
1253.72,5798.00
1255.05,6589.00
1256.37,5830.00
1257.70,6528.00
1259.03,5862.00
1260.36,6924.00
1261.68,6261.00
1263.01,7211.00
1264.33,6878.00
1265.66,7942.00
1266.98,7503.00
1268.31,8787.00
1269.63,8697.00
1270.95,10231.00
1272.27,10211.00
1273.59,11489.00
1274.91,11192.00
1276.23,12354.00
1277.55,11834.00
1278.87,12547.00
1280.19,11673.00
1281.51,12644.00
1282.82,11907.00
1284.14,12267.00
1285.45,11367.00
1286.77,12351.00
1288.08,11252.00
1289.39,12211.00
1290.71,11477.00
1292.02,12301.00
1293.33,11661.00
1294.64,12856.00
1295.95,11692.00
1297.26,12665.00
1298.57,11576.00
1299.88,12068.00
1301.19,10877.00
1302.49,11202.00
1303.80,9907.00
1305.11,10110.00
1306.41,9197.00
1307.72,9693.00
1309.02,8516.00
1310.32,9269.00
1311.63,8149.00
1312.93,8286.00
1314.23,7542.00
1315.53,7744.00
1316.83,7044.00
1318.13,7474.00
1319.43,6415.00
1320.73,6844.00
1322.03,6037.00
1323.32,6444.00
1324.62,5665.00
1325.92,6119.00
1327.21,5542.00
1328.51,6343.00
1329.80,5276.00
1331.10,5821.00
1332.39,5078.00
1333.68,5764.00
1334.97,4908.00
1336.27,5452.00
1337.56,4896.00
1338.85,5497.00
1340.14,4927.00
1341.42,5697.00
1342.71,4856.00
1344.00,5514.00
1345.29,5106.00
1346.57,5781.00
1347.86,5123.00
1349.15,5869.00
1350.43,5181.00
1351.71,5708.00
1353.00,4853.00
1354.28,5752.00
1355.56,4935.00
1356.85,5569.00
1358.13,5129.00
1359.41,5544.00
1360.69,5096.00
1361.97,5498.00
1363.25,4961.00
1364.52,5558.00
1365.80,4813.00
1367.08,5672.00
1368.35,4893.00
1369.63,5411.00
1370.91,5102.00
1372.18,5609.00
1373.45,5079.00
1374.73,5739.00
1376.00,5125.00
1377.27,5543.00
1378.54,4970.00
1379.82,5501.00
1381.09,5058.00
1382.36,5757.00
1383.63,5093.00
1384.89,5955.00
1386.16,5272.00
1387.43,6042.00
1388.70,5519.00
1389.96,6521.00
1391.23,6057.00
1392.50,6783.00
1393.76,6885.00
1395.02,7272.00
1396.29,7368.00
1397.55,8134.00
1398.81,7915.00
1400.08,8467.00
1401.34,8059.00
1402.60,9104.00
1403.86,8340.00
1405.12,9322.00
1406.38,8926.00
1407.63,9476.00
1408.89,9514.00
1410.15,10503.00
1411.41,10490.00
1412.66,11556.00
1413.92,11432.00
1415.17,12992.00
1416.43,13078.00
1417.68,14632.00
1418.93,14300.00
1420.19,15597.00
1421.44,15296.00
1422.69,16050.00
1423.94,16029.00
1425.19,16694.00
1426.44,16422.00
1427.69,16848.00
1428.94,16318.00
1430.19,17000.00
1431.43,16222.00
1432.68,17148.00
1433.93,16606.00
1435.17,17356.00
1436.42,17383.00
1437.66,17951.00
1438.91,17576.00
1440.15,18395.00
1441.39,18008.00
1442.64,18390.00
1443.88,17854.00
1445.12,18080.00
1446.36,17554.00
1447.60,17973.00
1448.84,16906.00
1450.08,17358.00
1451.32,16378.00
1452.56,16623.00
1453.79,15569.00
1455.03,15823.00
1456.27,14947.00
1457.50,15131.00
1458.74,13997.00
1459.97,14372.00
1461.21,13517.00
1462.44,13487.00
1463.67,12560.00
1464.91,12799.00
1466.14,11834.00
1467.37,11917.00
1468.60,10991.00
1469.83,11545.00
1471.06,10411.00
1472.29,10532.00
1473.52,9421.00
1474.75,9853.00
1475.97,8984.00
1477.20,9136.00
1478.43,8412.00
1479.65,8618.00
1480.88,7811.00
1482.10,7823.00
1483.33,7550.00
1484.55,7406.00
1485.77,6651.00
1487.00,7121.00
1488.22,6274.00
1489.44,6970.00
1490.66,6139.00
1491.88,6636.00
1493.10,5991.00
1494.32,6422.00
1495.54,5697.00
1496.76,5900.00
1497.97,5480.00
1499.19,5926.00
1500.41,5274.00
1501.62,5706.00
1502.84,4706.00
1504.05,5591.00
1505.27,4980.00
1506.48,5400.00
1507.70,5057.00
1508.91,5337.00
1510.12,4906.00
1511.33,5321.00
1512.54,4760.00
1513.75,4905.00
1514.96,4695.00
1516.17,5182.00
1517.38,4538.00
1518.59,5121.00
1519.80,4508.00
1521.01,5223.00
1522.21,4616.00
1523.42,5137.00
1524.63,4213.00
1525.83,4884.00
1527.04,4251.00
1528.24,5031.00
1529.44,4260.00
1530.65,4884.00
1531.85,4305.00
1533.05,4786.00
1534.25,3946.00
1535.45,4652.00
1536.65,4189.00
1537.85,4662.00
1539.05,4219.00
1540.25,4853.00
1541.45,4259.00
1542.65,4571.00
1543.85,4196.00
1545.04,4572.00
1546.24,3966.00
1547.44,4622.00
1548.63,4061.00
1549.83,4382.00
1551.02,3757.00
1552.21,4620.00
1553.41,3986.00
1554.60,4357.00
1555.79,3689.00
1556.98,4500.00
1558.17,3897.00
1559.37,4199.00
1560.56,3736.00
1561.74,4354.00
1562.93,3681.00
1564.12,4056.00
1565.31,3851.00
1566.50,4344.00
1567.68,3672.00
1568.87,4104.00
1570.06,3630.00
1571.24,4135.00
1572.43,3648.00
1573.61,4325.00
1574.80,3682.00
1575.98,4245.00
1577.16,3672.00
1578.34,4056.00
1579.53,3634.00
1580.71,4055.00
1581.89,3482.00
1583.07,4104.00
1584.25,3627.00
1585.43,3999.00
1586.61,3404.00
1587.78,3978.00
1588.96,3639.00
1590.14,4028.00
1591.32,3388.00
1592.49,3919.00
1593.67,3529.00
1594.84,3877.00
1596.02,3544.00
1597.19,4061.00
1598.37,3469.00
1599.54,3895.00
1600.71,3277.00
1601.88,3850.00
1603.06,3414.00
1604.23,3940.00
1605.40,3347.00
1606.57,3730.00
1607.74,3452.00
1608.91,3728.00
1610.07,3290.00
1611.24,3967.00
1612.41,3382.00
1613.58,3792.00
1614.74,3534.00
1615.91,3703.00
1617.08,3280.00
1618.24,3852.00
1619.41,3338.00
1620.57,3779.00
1621.73,3354.00
1622.90,3671.00
1624.06,3295.00
1625.22,3852.00
1626.38,3360.00
1627.54,3852.00
1628.70,3331.00
1629.87,3738.00
1631.02,3418.00
1632.18,3817.00
1633.34,3302.00
1634.50,3710.00
1635.66,3244.00
1636.82,3814.00
1637.97,3313.00
1639.13,3678.00
1640.28,3345.00
1641.44,3725.00
1642.59,3218.00
1643.75,3679.00
1644.90,3386.00
1646.06,3605.00
1647.21,3228.00
1648.36,3693.00
1649.51,3256.00
1650.66,3730.00
1651.81,3193.00
1652.97,3684.00
1654.11,3178.00
1655.26,3733.00
1656.41,3301.00
1657.56,3773.00
1658.71,3142.00
1659.86,3707.00
1661.00,3095.00
1662.15,3784.00
1663.30,2917.00
1664.44,3702.00
1665.59,3159.00
1666.73,3635.00
1667.88,3333.00
1669.02,3626.00
1670.16,3047.00
1671.30,3711.00
1672.45,3233.00
1673.59,3646.00
1674.73,3245.00
1675.87,3693.00
1677.01,3072.00
1678.15,3820.00
1679.29,3272.00
1680.43,3626.00
1681.57,3166.00
1682.70,3575.00
1683.84,3082.00
1684.98,3726.00
1686.12,3179.00
1687.25,3527.00
1688.39,3212.00
1689.52,3629.00
1690.66,3275.00
1691.79,3558.00
1692.92,3121.00
1694.06,3640.00
1695.19,3186.00
1696.32,3656.00
1697.45,3300.00
1698.58,3775.00
1699.72,3192.00
1700.85,3657.00
1701.98,3205.00
1703.10,3593.00
1704.23,3404.00
1705.36,3577.00
1706.49,3166.00
1707.62,3727.00
1708.74,3296.00
1709.87,3892.00
1711.00,3009.00
1712.12,3667.00
1713.25,3292.00
1714.37,3576.00
1715.50,3288.00
1716.62,3731.00
1717.74,3197.00
1718.87,3652.00
1719.99,3343.00
1721.11,3555.00
1722.23,3263.00
1723.35,3486.00
1724.47,3162.00
1725.59,3630.00
1726.71,3177.00
1727.83,3534.00
1728.95,3287.00
1730.07,3539.00
1731.19,3077.00
1732.30,3725.00
1733.42,3288.00
1734.54,3606.00
1735.65,3288.00
1736.77,3580.00
1737.88,3268.00
1739.00,3720.00
1740.11,3395.00
1741.23,3649.00
1742.34,3212.00
1743.45,3594.00
1744.56,3190.00
1745.68,3822.00
1746.79,3160.00
1747.90,3656.00
1749.01,3206.00
1750.12,3592.00
1751.23,3114.00
1752.34,3691.00
1753.45,3046.00
1754.55,3465.00
1755.66,2914.00
1756.77,3711.00
1757.88,3143.00
1758.98,3406.00
1760.09,2937.00
1761.19,3496.00
1762.30,3004.00
1763.40,3444.00
1764.51,3073.00
1765.61,3341.00
1766.71,2977.00
1767.82,3629.00
1768.92,3030.00
1770.02,3257.00
1771.12,2960.00
1772.22,3216.00
1773.32,2968.00
1774.42,3473.00
1775.52,2889.00
1776.62,3307.00
1777.72,2872.00
1778.82,3363.00
1779.92,2851.00
1781.01,3534.00
1782.11,2812.00
1783.21,3332.00
1784.30,2882.00
1785.40,3218.00
1786.50,2935.00
1787.59,3495.00
1788.68,2913.00
1789.78,3404.00
1790.87,2698.00
1791.96,3157.00
1793.06,2608.00
1794.15,3303.00
1795.24,2786.00
1796.33,3107.00
1797.42,2558.00
1798.51,3106.00
1799.60,2784.00
1800.69,3191.00
1801.78,2499.00
1802.87,3058.00
1803.96,2640.00
1805.05,2991.00
1806.13,2655.00
1807.22,3046.00
1808.31,2532.00
1809.39,3044.00
1810.48,2504.00
1811.56,3000.00
1812.65,2615.00
1813.73,2973.00
1814.82,2432.00
1815.90,2963.00
1816.98,2334.00
1818.07,2852.00
1819.15,2396.00
1820.23,2740.00
1821.31,2349.00
1822.39,2953.00
1823.47,2412.00
1824.55,2722.00
1825.63,2449.00
1826.71,2555.00
1827.79,2427.00
1828.87,2848.00
1829.95,2187.00
1831.02,2646.00
1832.10,2209.00
1833.18,2857.00
1834.25,2298.00
1835.33,2622.00
1836.40,2282.00
1837.48,2482.00
1838.55,2250.00
1839.63,2453.00
1840.70,2135.00
1841.77,2550.00
1842.85,2204.00
1843.92,2400.00
1844.99,2206.00
1846.06,2601.00
1847.13,2025.00
1848.20,2583.00
1849.28,2168.00
1850.34,2487.00
1851.41,2062.00
1852.48,2590.00
1853.55,2066.00
1854.62,2312.00
1855.69,2108.00
1856.76,2389.00
1857.82,1984.00
1858.89,2421.00
1859.95,1921.00
1861.02,2299.00
1862.09,1927.00
1863.15,2286.00
1864.21,1942.00
1865.28,2274.00
1866.34,1826.00
1867.41,2289.00
1868.47,2060.00
1869.53,2286.00
1870.59,1900.00
1871.65,2240.00
1872.71,1969.00
1873.78,2391.00
1874.84,1858.00
1875.90,2091.00
1876.96,1826.00
1878.01,2325.00
1879.07,1855.00
1880.13,2212.00
1881.19,1760.00
1882.25,2141.00
1883.30,1760.00
1884.36,2193.00
1885.42,1874.00
1886.47,2189.00
1887.53,1724.00
1888.58,2147.00
1889.64,1737.00
1890.69,2134.00
1891.74,1641.00
1892.80,2290.00
1893.85,1751.00
1894.90,2069.00
1895.96,1761.00
1897.01,2223.00
1898.06,1918.00
1899.11,2237.00
1900.16,1832.00
1901.21,2151.00
1902.26,1683.00
1903.31,2180.00
1904.36,1754.00
1905.41,2128.00
1906.45,1709.00
1907.50,2084.00
1908.55,1780.00
1909.60,2055.00
1910.64,1712.00
1911.69,2232.00
1912.73,1860.00
1913.78,2141.00
1914.82,1713.00
1915.87,2021.00
1916.91,1945.00
1917.96,2169.00
1919.00,1641.00
1920.04,2107.00
1921.08,1805.00
1922.13,2103.00
1923.17,1816.00
1924.21,2322.00
1925.25,1584.00
1926.29,2107.00
1927.33,1726.00
1928.37,1935.00
1929.41,1720.00
1930.45,2275.00
1931.49,1619.00
1932.53,2005.00
1933.56,1639.00
1934.60,2146.00
1935.64,1635.00
1936.67,2105.00
1937.71,1600.00
1938.75,2106.00
1939.78,1665.00
1940.82,1974.00
1941.85,1573.00
1942.89,2216.00
1943.92,1892.00
1944.95,2179.00
1945.99,1662.00
1947.02,2062.00
1948.05,1641.00
1949.08,2071.00
1950.11,1673.00
1951.15,2042.00
1952.18,1527.00
1953.21,2130.00
1954.24,1683.00
1955.27,1989.00
1956.30,1734.00
1957.32,2114.00
1958.35,1681.00
1959.38,2045.00
1960.41,1646.00
1961.44,2148.00
1962.46,1599.00
1963.49,2061.00
1964.51,1758.00
1965.54,1974.00
1966.57,1693.00
1967.59,2049.00
1968.62,1612.00
1969.64,1808.00
1970.66,1653.00
1971.69,1980.00
1972.71,1742.00
1973.73,2065.00
1974.75,1489.00
1975.78,2008.00
1976.80,1653.00
1977.82,2071.00
1978.84,1552.00
1979.86,2050.00
1980.88,1688.00
1981.90,1870.00
1982.92,1581.00
1983.94,1972.00
1984.96,1778.00
1985.98,1939.00
1986.99,1562.00
1988.01,2003.00
1989.03,1645.00
1990.04,2015.00
1991.06,1452.00
1992.08,2039.00
1993.09,1586.00
1994.11,2000.00
1995.12,1571.00
1996.14,2046.00
1997.15,1596.00
1998.16,1984.00
1999.18,1746.00
2000.19,2061.00
2001.20,1572.00
2002.21,2136.00
2003.23,1532.00
2004.24,2047.00
2005.25,1579.00
2006.26,2026.00
2007.27,1490.00
2008.28,1797.00
2009.29,1678.00
2010.30,2094.00
2011.31,1559.00
2012.32,2005.00
2013.32,1621.00
2014.33,1937.00
2015.34,1551.00
2016.35,1919.00
2017.35,1498.00
2018.36,1990.00
2019.36,1644.00
2020.37,1891.00
2021.38,1648.00
2022.38,1989.00
2023.38,1565.00
2024.39,2024.00
2025.39,1561.00
2026.40,2002.00
2027.40,1587.00
2028.40,2100.00
2029.40,1634.00
2030.41,2088.00
2031.41,1640.00
2032.41,1906.00
2033.41,1630.00
2034.41,1965.00
2035.41,1621.00
2036.41,1986.00
2037.41,1478.00
2038.41,1916.00
2039.41,1641.00
2040.40,1983.00
2041.40,1566.00
2042.40,2008.00
2043.40,1561.00
2044.39,1950.00
2045.39,1691.00
2046.39,1948.00
2047.38,1569.00
2048.38,2088.00
2049.37,1605.00
2050.37,1790.00
2051.36,1471.00
2052.36,1815.00
2053.35,1559.00
2054.34,1763.00
2055.34,1550.00
2056.33,1784.00
2057.32,1519.00
2058.31,1938.00
2059.30,1486.00
2060.30,1892.00
2061.29,1510.00
2062.28,1950.00
2063.27,1573.00
2064.26,1947.00
2065.25,1507.00
2066.23,1723.00
2067.22,1598.00
2068.21,1852.00
2069.20,1438.00
2070.19,1902.00
2071.17,1554.00
2072.16,1840.00
2073.15,1367.00
2074.13,1809.00
2075.12,1391.00
2076.11,1822.00
2077.09,1384.00
2078.08,1836.00
2079.06,1413.00
2080.04,1722.00
2081.03,1450.00
2082.01,1906.00
2083.00,1421.00
2083.98,1846.00
2084.96,1366.00
2085.94,1681.00
2086.92,1291.00
2087.91,1721.00
2088.89,1367.00
2089.87,1684.00
2090.85,1306.00
2091.83,1686.00
2092.81,1304.00
2093.79,1571.00
2094.77,1304.00
2095.74,1813.00
2096.72,1340.00
2097.70,1610.00
2098.68,1356.00
2099.66,1691.00
2100.63,1446.00
2101.61,1737.00
2102.59,1211.00
2103.56,1729.00
2104.54,1315.00
2105.51,1634.00
2106.49,1230.00
2107.46,1732.00
2108.44,1194.00
2109.41,1770.00
2110.38,1322.00
2111.36,1675.00
2112.33,1374.00
2113.30,1708.00
2114.27,1348.00
2115.25,1638.00
2116.22,1255.00
2117.19,1673.00
2118.16,1236.00
2119.13,1595.00
2120.10,1252.00
2121.07,1704.00
2122.04,1242.00
2123.01,1539.00
2123.98,1287.00
2124.95,1461.00
2125.91,1206.00
2126.88,1499.00
2127.85,1111.00
2128.82,1545.00
2129.78,1284.00
2130.75,1569.00
2131.72,1231.00
2132.68,1470.00
2133.65,1215.00
2134.61,1626.00
2135.58,1196.00
2136.54,1411.00
2137.51,1213.00
2138.47,1584.00
2139.43,1297.00
2140.40,1527.00
2141.36,1141.00
2142.32,1571.00
2143.29,1143.00
2144.25,1439.00
2145.21,1102.00
2146.17,1354.00
2147.13,1198.00
2148.09,1480.00
2149.05,1256.00
2150.01,1514.00
2150.97,1242.00
2151.93,1533.00
2152.89,1109.00
2153.85,1503.00
2154.81,1149.00
2155.76,1502.00
2156.72,1221.00
2157.68,1508.00
2158.64,1287.00
2159.59,1447.00
2160.55,1066.00
2161.51,1551.00
2162.46,1202.00
2163.42,1636.00
2164.37,1275.00
2165.33,1637.00
2166.28,1237.00
2167.24,1437.00
2168.19,1363.00
2169.14,1466.00
2170.10,1222.00
2171.05,1513.00
2172.00,1361.00
2172.95,1646.00
2173.91,1214.00
2174.86,1626.00
2175.81,1329.00
2176.76,1640.00
2177.71,1205.00
2178.66,1655.00
2179.61,1386.00
2180.56,1497.00
2181.51,1223.00
2182.46,1552.00
2183.41,1240.00
2184.36,1582.00
2185.30,1360.00
2186.25,1520.00
2187.20,1129.00
2188.15,1671.00
2189.09,1272.00
2190.04,1547.00
2190.99,1190.00
2191.93,1654.00
2192.88,1198.00
2193.82,1604.00
2194.77,1213.00
2195.71,1686.00
2196.66,1179.00
2197.60,1546.00
2198.54,1287.00
2199.49,1482.00
2200.43,1205.00
2201.37,1763.00
2202.32,1202.00
2203.26,1649.00
2204.20,1256.00
2205.14,1601.00
2206.08,1250.00
2207.02,1535.00
2207.96,1150.00
2208.90,1511.00
2209.84,1320.00
2210.78,1418.00
2211.72,1223.00
2212.66,1505.00
2213.60,1183.00
2214.54,1556.00
2215.48,1375.00
2216.42,1627.00
2217.35,1240.00
2218.29,1535.00
2219.23,1362.00
2220.16,1610.00
2221.10,1233.00
2222.04,1639.00
2222.97,1224.00
2223.91,1587.00
2224.84,1238.00
2225.78,1548.00
2226.71,1300.00
2227.65,1706.00
2228.58,1317.00
2229.51,1699.00
2230.45,1402.00
2231.38,1620.00
2232.31,1206.00
2233.24,1526.00
2234.18,1480.00
2235.11,1686.00
2236.04,1176.00
2236.97,1691.00
2237.90,1227.00
2238.83,1594.00
2239.76,1233.00
2240.69,1629.00
2241.62,1264.00
2242.55,1647.00
2243.48,1373.00
2244.41,1687.00
2245.34,1326.00
2246.27,1659.00
2247.19,1314.00
2248.12,1626.00
2249.05,1183.00
2249.98,1623.00
2250.90,1385.00
2251.83,1717.00
2252.75,1210.00
2253.68,1643.00
2254.61,1317.00
2255.53,1632.00
2256.46,1251.00
2257.38,1676.00
2258.31,1332.00
2259.23,1545.00
2260.15,1318.00
2261.08,1672.00
2262.00,1277.00
2262.92,1604.00
2263.85,1130.00
2264.77,1635.00
2265.69,1244.00
2266.61,1660.00
2267.53,1470.00
2268.45,1476.00
2269.37,1303.00
2270.30,1614.00
2271.22,1233.00
2272.14,1675.00
2273.05,1327.00
2273.97,1566.00
2274.89,1320.00
2275.81,1661.00
2276.73,1247.00
2277.65,1653.00
2278.57,1359.00
2279.48,1626.00
2280.40,1187.00
2281.32,1651.00
2282.24,1047.00
2283.15,1635.00
2284.07,1265.00
2284.98,1555.00
2285.90,1282.00
2286.82,1524.00
2287.73,1166.00
2288.65,1535.00
2289.56,1267.00
2290.47,1556.00
2291.39,1307.00
2292.30,1601.00
2293.21,1207.00
2294.13,1488.00
2295.04,1156.00
2295.95,1456.00
2296.87,1133.00
2297.78,1457.00
2298.69,1175.00
2299.60,1548.00
2300.51,1090.00
2301.42,1420.00
2302.33,1099.00
2303.24,1503.00
2304.15,1191.00
2305.06,1566.00
2305.97,1316.00
2306.88,1441.00
2307.79,1151.00
2308.70,1443.00
2309.61,1086.00
2310.51,1398.00
2311.42,1136.00
2312.33,1516.00
2313.24,1193.00
2314.14,1454.00
2315.05,1174.00
2315.96,1487.00
2316.86,1150.00
2317.77,1504.00
2318.67,1052.00
2319.58,1464.00
2320.48,1123.00
2321.39,1430.00
2322.29,1025.00
2323.20,1428.00
2324.10,1139.00
2325.00,1338.00
2325.91,1038.00
2326.81,1366.00
2327.71,1042.00
2328.62,1316.00
2329.52,1046.00
2330.42,1447.00
2331.32,1038.00
2332.22,1360.00
2333.12,1097.00
2334.03,1377.00
2334.93,1090.00
2335.83,1397.00
2336.73,1064.00
2337.63,1317.00
2338.53,988.00
2339.42,1314.00
2340.32,973.00
2341.22,1181.00
2342.12,1023.00
2343.02,1275.00
2343.92,937.00
2344.81,1394.00
2345.71,990.00
2346.61,1360.00
2347.51,994.00
2348.40,1363.00
2349.30,933.00
2350.19,1336.00
2351.09,1084.00
2351.98,1380.00
2352.88,964.00
2353.77,1337.00
2354.67,984.00
2355.56,1312.00
2356.46,1000.00
2357.35,1303.00
2358.25,874.00
2359.14,1388.00
2360.03,934.00
2360.92,1247.00
2361.82,932.00
2362.71,1256.00
2363.60,1040.00
2364.49,1420.00
2365.38,941.00
2366.28,1377.00
2367.17,974.00
2368.06,1393.00
2368.95,1026.00
2369.84,1249.00
2370.73,984.00
2371.62,1392.00
2372.51,1014.00
2373.40,1278.00
2374.28,1081.00
2375.17,1268.00
2376.06,973.00
2376.95,1276.00
2377.84,861.00
2378.72,1348.00
2379.61,865.00
2380.50,1380.00
2381.39,922.00
2382.27,1231.00
2383.16,900.00
2384.04,1381.00
2384.93,890.00
2385.81,1196.00
2386.70,1015.00
2387.59,1342.00
2388.47,957.00
2389.35,1289.00
2390.24,867.00
2391.12,1308.00
2392.01,935.00
2392.89,1223.00
2393.77,852.00
2394.66,1171.00
2395.54,948.00
2396.42,1354.00
2397.30,980.00
2398.18,1237.00
2399.07,948.00
2399.95,1338.00
2400.83,967.00
2401.71,1319.00
2402.59,975.00
2403.47,1285.00
2404.35,969.00
2405.23,1327.00
2406.11,964.00
2406.99,1430.00
2407.87,872.00
2408.75,1296.00
2409.62,929.00
2410.50,1396.00
2411.38,1033.00
2412.26,1440.00
2413.14,1036.00
2414.01,1251.00
2414.89,998.00
2415.77,1345.00
2416.64,1018.00
2417.52,1321.00
2418.40,977.00
2419.27,1298.00
2420.15,888.00
2421.02,1416.00
2421.90,1053.00
2422.77,1485.00
2423.65,1037.00
2424.52,1378.00
2425.40,977.00
2426.27,1418.00
2427.14,1068.00
2428.02,1386.00
2428.89,931.00
2429.76,1442.00
2430.64,993.00
2431.51,1326.00
2432.38,1008.00
2433.25,1395.00
2434.12,1022.00
2434.99,1390.00
2435.87,984.00
2436.74,1314.00
2437.61,998.00
2438.48,1309.00
2439.35,1071.00
2440.22,1405.00
2441.09,1047.00
2441.96,1397.00
2442.83,1014.00
2443.69,1282.00
2444.56,1003.00
2445.43,1362.00
2446.30,1011.00
2447.17,1449.00
2448.04,1057.00
2448.90,1458.00
2449.77,995.00
2450.64,1433.00
2451.50,919.00
2452.37,1267.00
2453.24,980.00
2454.10,1318.00
2454.97,984.00
2455.83,1248.00
2456.70,980.00
2457.56,1349.00
2458.43,1024.00
2459.29,1366.00
2460.16,1023.00
2461.02,1437.00
2461.89,946.00
2462.75,1370.00
2463.61,930.00
2464.48,1455.00
2465.34,997.00
2466.20,1375.00
2467.06,1025.00
2467.93,1312.00
2468.79,965.00
2469.65,1507.00
2470.51,1047.00
2471.37,1384.00
2472.23,1076.00
2473.10,1429.00
2473.96,1089.00
2474.82,1516.00
2475.68,1016.00
2476.54,1310.00
2477.40,1005.00
2478.26,1398.00
2479.11,995.00
2479.97,1352.00
2480.83,938.00
2481.69,1323.00
2482.55,893.00
2483.41,1527.00
2484.26,1061.00
2485.12,1271.00
2485.98,1025.00
2486.84,1383.00
2487.69,1008.00
2488.55,1374.00
2489.41,960.00
2490.26,1563.00
2491.12,1005.00
2491.97,1494.00
2492.83,1085.00
2493.68,1423.00
2494.54,957.00
2495.39,1253.00
2496.25,994.00
2497.10,1599.00
2497.96,912.00
2498.81,1491.00
2499.67,1045.00
2500.52,1415.00
2501.37,1046.00
2502.22,1432.00
2503.08,1038.00
2503.93,1316.00
2504.78,1019.00
2505.63,1473.00
2506.49,965.00
2507.34,1385.00
2508.19,1024.00
2509.04,1450.00
2509.89,1057.00
2510.74,1386.00
2511.59,1016.00
2512.44,1451.00
2513.29,953.00
2514.14,1485.00
2514.99,1014.00
2515.84,1485.00
2516.69,924.00
2517.54,1409.00
2518.39,1168.00
2519.24,1406.00
2520.08,994.00
2520.93,1451.00
2521.78,1000.00
2522.63,1423.00
2523.48,1139.00
2524.32,1474.00
2525.17,993.00
2526.02,1360.00
2526.86,916.00
2527.71,1450.00
2528.56,994.00
2529.40,1361.00
2530.25,992.00
2531.09,1545.00
2531.94,920.00
2532.78,1324.00
2533.63,994.00
2534.47,1266.00
2535.32,1054.00
2536.16,1420.00
2537.00,1069.00
2537.85,1451.00
2538.69,1088.00
2539.53,1376.00
2540.38,1090.00
2541.22,1542.00
2542.06,955.00
2542.90,1359.00
2543.75,959.00
2544.59,1396.00
2545.43,955.00
2546.27,1323.00
2547.11,971.00
2547.95,1354.00
2548.79,1026.00
2549.64,1282.00
2550.48,960.00
2551.32,1402.00
2552.16,970.00
2553.00,1322.00
2553.84,923.00
2554.67,1371.00
2555.51,1033.00
2556.35,1529.00
2557.19,1062.00
2558.03,1257.00
2558.87,984.00
2559.71,1300.00
2560.54,956.00
2561.38,1492.00
2562.22,870.00
2563.06,1285.00
2563.89,931.00
2564.73,1292.00
2565.57,903.00
2566.40,1372.00
2567.24,983.00
2568.07,1467.00
2568.91,967.00
2569.75,1487.00
2570.58,1002.00
2571.42,1383.00
2572.25,993.00
2573.09,1388.00
2573.92,1087.00
2574.75,1460.00
2575.59,998.00
2576.42,1549.00
2577.26,883.00
2578.09,1456.00
2578.92,1030.00
2579.76,1419.00
2580.59,947.00
2581.42,1359.00
2582.25,1031.00
2583.09,1468.00
2583.92,1058.00
2584.75,1480.00
2585.58,955.00
2586.41,1307.00
2587.24,980.00
2588.07,1495.00
2588.91,916.00
2589.74,1434.00
2590.57,1039.00
2591.40,1432.00
2592.23,1130.00
2593.06,1514.00
2593.89,1054.00
2594.72,1353.00
2595.54,1075.00
2596.37,1412.00
2597.20,908.00
2598.03,1507.00
2598.86,1064.00
2599.69,1602.00
2600.52,1053.00
2601.34,1524.00
2602.17,994.00
2603.00,1474.00
2603.82,964.00
2604.65,1603.00
2605.48,1057.00
2606.30,1396.00
2607.13,1105.00
2607.96,1639.00
2608.78,992.00
2609.61,1390.00
2610.43,1060.00
2611.26,1534.00
2612.08,1009.00
2612.91,1481.00
2613.73,1006.00
2614.56,1415.00
2615.38,976.00
2616.21,1476.00
2617.03,963.00
2617.86,1439.00
2618.68,950.00
2619.50,1526.00
2620.33,1018.00
2621.15,1288.00
2621.97,996.00
2622.79,1505.00
2623.62,1038.00
2624.44,1483.00
2625.26,1045.00
2626.08,1470.00
2626.90,1020.00
2627.72,1350.00
2628.55,1045.00
2629.37,1477.00
2630.19,1058.00
2631.01,1416.00
2631.83,1107.00
2632.65,1589.00
2633.47,1096.00
2634.29,1539.00
2635.11,1083.00
2635.93,1393.00
2636.75,1125.00
2637.57,1491.00
2638.39,1005.00
2639.20,1498.00
2640.02,1070.00
2640.84,1481.00
2641.66,1106.00
2642.48,1583.00
2643.29,1102.00
2644.11,1562.00
2644.93,1097.00
2645.75,1472.00
2646.56,1218.00
2647.38,1544.00
2648.20,952.00
2649.01,0.00
2649.83,0.00
2650.65,0.00
2651.46,0.00
2652.28,0.00
