ENLIGHTEN Version,1.7.2
Measurement ID,20190716-220814-207211-WP-00438
Serial Number,WP-00438
Label,ethanol
Integration Time,1000
Timestamp,2019-07-16 22:08:14.207211
Note,
Temperature,-99
CCD C0,807.1400146484375
CCD C1,0.11761099845170975
CCD C2,-1.6414700439781882e-05
CCD C3,2.3293600381890656e-09
CCD Offset,0
CCD Gain,8.0
Laser Wavelength,785.0
Laser Enable,True
Laser Power,100.0
Laser Temperature,-99
Pixel Count,1952

Wavenumber,Processed
349.43,0.00
351.23,0.00
353.04,0.00
354.84,65.00
356.64,189.00
358.44,74.00
360.24,302.00
362.04,190.00
363.84,193.00
365.64,33.00
367.43,288.00
369.23,211.00
371.02,232.00
372.81,175.00
374.60,192.00
376.39,204.00
378.18,202.00
379.97,99.00
381.76,246.00
383.55,230.00
385.33,345.00
387.11,309.00
388.90,336.00
390.68,87.00
392.46,392.00
394.24,498.00
396.02,350.00
397.80,315.00
399.58,398.00
401.35,362.00
403.13,450.00
404.90,460.00
406.68,657.00
408.45,635.00
410.22,432.00
411.99,440.00
413.76,387.00
415.53,825.00
417.30,949.00
419.06,950.00
420.83,982.00
422.59,1175.00
424.35,1101.00
426.12,1219.00
427.88,1495.00
429.64,1884.00
431.40,1618.00
433.16,1863.00
434.91,1925.00
436.67,1964.00
438.43,1863.00
440.18,1733.00
441.93,1895.00
443.69,1691.00
445.44,1713.00
447.19,1592.00
448.94,1512.00
450.69,1666.00
452.43,1470.00
454.18,1302.00
455.92,1230.00
457.67,1093.00
459.41,1130.00
461.16,1010.00
462.90,929.00
464.64,684.00
466.38,895.00
468.12,742.00
469.85,727.00
471.59,894.00
473.33,535.00
475.06,574.00
476.80,584.00
478.53,398.00
480.26,491.00
481.99,571.00
483.72,467.00
485.45,650.00
487.18,435.00
488.91,402.00
490.63,381.00
492.36,248.00
494.08,398.00
495.80,359.00
497.53,354.00
499.25,220.00
500.97,318.00
502.69,421.00
504.41,366.00
506.12,388.00
507.84,219.00
509.56,356.00
511.27,213.00
512.98,165.00
514.70,233.00
516.41,333.00
518.12,214.00
519.83,295.00
521.54,181.00
523.25,174.00
524.95,64.00
526.66,236.00
528.36,314.00
530.07,364.00
531.77,227.00
533.47,358.00
535.18,381.00
536.88,304.00
538.58,249.00
540.27,262.00
541.97,345.00
543.67,177.00
545.36,214.00
547.06,195.00
548.75,197.00
550.45,24.00
552.14,203.00
553.83,175.00
555.52,125.00
557.21,113.00
558.90,247.00
560.58,282.00
562.27,260.00
563.96,137.00
565.64,229.00
567.32,118.00
569.01,265.00
570.69,402.00
572.37,188.00
574.05,162.00
575.73,246.00
577.41,66.00
579.08,241.00
580.76,417.00
582.44,316.00
584.11,326.00
585.78,222.00
587.46,328.00
589.13,165.00
590.80,186.00
592.47,334.00
594.14,236.00
595.81,294.00
597.47,404.00
599.14,41.00
600.80,268.00
602.47,214.00
604.13,256.00
605.79,300.00
607.46,195.00
609.12,422.00
610.78,188.00
612.44,172.00
614.09,226.00
615.75,328.00
617.41,309.00
619.06,290.00
620.72,203.00
622.37,224.00
624.02,357.00
625.67,242.00
627.33,73.00
628.97,278.00
630.62,106.00
632.27,181.00
633.92,116.00
635.57,128.00
637.21,161.00
638.86,243.00
640.50,183.00
642.14,244.00
643.78,243.00
645.42,227.00
647.06,215.00
648.70,323.00
650.34,116.00
651.98,186.00
653.62,268.00
655.25,243.00
656.89,212.00
658.52,91.00
660.15,162.00
661.79,136.00
663.42,281.00
665.05,274.00
666.68,265.00
668.31,275.00
669.93,257.00
671.56,295.00
673.19,332.00
674.81,252.00
676.43,185.00
678.06,324.00
679.68,97.00
681.30,320.00
682.92,227.00
684.54,306.00
686.16,214.00
687.78,145.00
689.40,302.00
691.01,159.00
692.63,144.00
694.24,229.00
695.86,282.00
697.47,265.00
699.08,228.00
700.69,167.00
702.30,141.00
703.91,292.00
705.52,334.00
707.13,281.00
708.74,150.00
710.34,43.00
711.95,206.00
713.55,136.00
715.15,275.00
716.76,355.00
718.36,363.00
719.96,200.00
721.56,288.00
723.16,246.00
724.76,249.00
726.35,257.00
727.95,225.00
729.55,217.00
731.14,-33.00
732.73,167.00
734.33,132.00
735.92,236.00
737.51,190.00
739.10,161.00
740.69,196.00
742.28,191.00
743.87,207.00
745.46,283.00
747.04,218.00
748.63,200.00
750.21,141.00
751.80,152.00
753.38,168.00
754.96,348.00
756.54,301.00
758.12,189.00
759.70,239.00
761.28,125.00
762.86,188.00
764.44,215.00
766.01,233.00
767.59,326.00
769.16,239.00
770.74,283.00
772.31,201.00
773.88,260.00
775.45,174.00
777.02,345.00
778.59,358.00
780.16,336.00
781.73,309.00
783.30,227.00
784.86,150.00
786.43,412.00
787.99,180.00
789.56,517.00
791.12,364.00
792.68,236.00
794.24,343.00
795.80,332.00
797.36,310.00
798.92,364.00
800.48,393.00
802.04,386.00
803.59,278.00
805.15,267.00
806.70,387.00
808.26,344.00
809.81,397.00
811.36,371.00
812.91,354.00
814.46,499.00
816.01,360.00
817.56,513.00
819.11,421.00
820.66,527.00
822.20,538.00
823.75,346.00
825.30,537.00
826.84,564.00
828.38,452.00
829.93,592.00
831.47,642.00
833.01,587.00
834.55,634.00
836.09,543.00
837.63,618.00
839.16,764.00
840.70,629.00
842.24,714.00
843.77,858.00
845.31,849.00
846.84,801.00
848.37,1068.00
849.90,1060.00
851.44,941.00
852.97,1327.00
854.50,1275.00
856.03,1590.00
857.55,1646.00
859.08,1982.00
860.61,2583.00
862.13,2748.00
863.66,3255.00
865.18,3723.00
866.70,4212.00
868.23,5211.00
869.75,5726.00
871.27,7320.00
872.79,8255.00
874.31,10058.00
875.83,11202.00
877.35,13054.00
878.86,13773.00
880.38,15671.00
881.89,16139.00
883.41,17185.00
884.92,16762.00
886.44,16981.00
887.95,15641.00
889.46,16143.00
890.97,13979.00
892.48,13200.00
893.99,11255.00
895.50,10464.00
897.01,8531.00
898.51,7333.00
900.02,5885.00
901.52,5098.00
903.03,4280.00
904.53,3679.00
906.04,2950.00
907.54,2482.00
909.04,2282.00
910.54,1957.00
912.04,1694.00
913.54,1608.00
915.04,1194.00
916.53,1368.00
918.03,1267.00
919.53,1113.00
921.02,965.00
922.52,1139.00
924.01,755.00
925.50,871.00
927.00,810.00
928.49,628.00
929.98,635.00
931.47,693.00
932.96,800.00
934.44,603.00
935.93,562.00
937.42,641.00
938.90,667.00
940.39,480.00
941.87,559.00
943.36,535.00
944.84,589.00
946.32,613.00
947.80,469.00
949.29,581.00
950.77,419.00
952.24,369.00
953.72,445.00
955.20,440.00
956.68,305.00
958.15,549.00
959.63,378.00
961.10,392.00
962.58,338.00
964.05,431.00
965.52,462.00
967.00,305.00
968.47,477.00
969.94,523.00
971.41,401.00
972.87,389.00
974.34,551.00
975.81,417.00
977.28,406.00
978.74,495.00
980.21,358.00
981.67,444.00
983.13,494.00
984.60,391.00
986.06,481.00
987.52,438.00
988.98,472.00
990.44,533.00
991.90,511.00
993.36,547.00
994.82,599.00
996.27,599.00
997.73,481.00
999.18,565.00
1000.64,558.00
1002.09,473.00
1003.55,691.00
1005.00,709.00
1006.45,771.00
1007.90,590.00
1009.35,678.00
1010.80,930.00
1012.25,799.00
1013.70,965.00
1015.14,614.00
1016.59,934.00
1018.04,950.00
1019.48,888.00
1020.93,963.00
1022.37,1020.00
1023.81,1315.00
1025.25,1304.00
1026.70,1284.00
1028.14,1532.00
1029.58,1593.00
1031.02,1841.00
1032.45,1824.00
1033.89,2046.00
1035.33,2409.00
1036.77,2626.00
1038.20,2511.00
1039.64,3093.00
1041.07,3240.00
1042.50,3448.00
1043.94,4141.00
1045.37,4438.00
1046.80,4338.00
1048.23,4816.00
1049.66,4716.00
1051.09,5229.00
1052.52,5054.00
1053.95,4982.00
1055.37,5078.00
1056.80,4935.00
1058.23,4703.00
1059.65,4721.00
1061.08,4258.00
1062.50,4331.00
1063.92,4073.00
1065.34,3975.00
1066.76,3764.00
1068.19,3660.00
1069.61,3449.00
1071.02,3242.00
1072.44,3011.00
1073.86,3285.00
1075.28,3222.00
1076.69,3360.00
1078.11,3199.00
1079.53,3651.00
1080.94,3528.00
1082.35,3818.00
1083.77,3776.00
1085.18,4188.00
1086.59,4089.00
1088.00,4555.00
1089.41,4577.00
1090.82,5028.00
1092.23,5329.00
1093.64,5382.00
1095.04,5174.00
1096.45,5518.00
1097.86,5411.00
1099.26,5702.00
1100.67,5160.00
1102.07,5189.00
1103.47,4949.00
1104.88,5045.00
1106.28,4528.00
1107.68,4647.00
1109.08,4033.00
1110.48,3921.00
1111.88,3449.00
1113.28,3465.00
1114.67,3247.00
1116.07,3017.00
1117.47,2825.00
1118.86,2742.00
1120.26,2486.00
1121.65,2657.00
1123.05,2313.00
1124.44,2347.00
1125.83,2205.00
1127.22,2082.00
1128.61,2024.00
1130.00,1979.00
1131.39,1660.00
1132.78,1877.00
1134.17,1888.00
1135.56,1565.00
1136.94,1633.00
1138.33,1444.00
1139.72,1310.00
1141.10,1166.00
1142.48,1171.00
1143.87,1199.00
1145.25,1064.00
1146.63,1068.00
1148.01,1081.00
1149.39,977.00
1150.77,1087.00
1152.15,1092.00
1153.53,1002.00
1154.91,1071.00
1156.29,1017.00
1157.66,990.00
1159.04,936.00
1160.41,815.00
1161.79,878.00
1163.16,761.00
1164.54,974.00
1165.91,813.00
1167.28,829.00
1168.65,795.00
1170.02,866.00
1171.39,806.00
1172.76,663.00
1174.13,682.00
1175.50,822.00
1176.86,692.00
1178.23,596.00
1179.60,779.00
1180.96,701.00
1182.33,601.00
1183.69,772.00
1185.05,793.00
1186.42,558.00
1187.78,469.00
1189.14,589.00
1190.50,458.00
1191.86,667.00
1193.22,637.00
1194.58,560.00
1195.94,773.00
1197.29,680.00
1198.65,623.00
1200.01,759.00
1201.36,701.00
1202.72,716.00
1204.07,616.00
1205.42,638.00
1206.78,655.00
1208.13,633.00
1209.48,708.00
1210.83,692.00
1212.18,642.00
1213.53,662.00
1214.88,818.00
1216.23,757.00
1217.58,805.00
1218.92,844.00
1220.27,755.00
1221.61,637.00
1222.96,801.00
1224.30,693.00
1225.65,724.00
1226.99,970.00
1228.33,783.00
1229.67,816.00
1231.01,826.00
1232.36,792.00
1233.70,855.00
1235.03,925.00
1236.37,685.00
1237.71,900.00
1239.05,1182.00
1240.38,1007.00
1241.72,967.00
1243.06,1197.00
1244.39,1277.00
1245.72,1158.00
1247.06,1073.00
1248.39,1045.00
1249.72,1285.00
1251.05,1215.00
1252.39,1535.00
1253.72,1265.00
1255.05,1406.00
1256.37,1242.00
1257.70,1579.00
1259.03,1536.00
1260.36,1762.00
1261.68,2010.00
1263.01,1877.00
1264.33,2036.00
1265.66,2018.00
1266.98,2128.00
1268.31,2536.00
1269.63,2478.00
1270.95,2629.00
1272.27,2828.00
1273.59,2758.00
1274.91,2859.00
1276.23,2919.00
1277.55,3020.00
1278.87,3180.00
1280.19,2982.00
1281.51,2982.00
1282.82,2883.00
1284.14,2881.00
1285.45,2461.00
1286.77,2558.00
1288.08,2351.00
1289.39,2216.00
1290.71,2240.00
1292.02,2105.00
1293.33,1965.00
1294.64,1842.00
1295.95,1706.00
1297.26,1714.00
1298.57,1779.00
1299.88,1470.00
1301.19,1465.00
1302.49,1424.00
1303.80,1336.00
1305.11,1631.00
1306.41,1340.00
1307.72,1266.00
1309.02,1153.00
1310.32,1297.00
1311.63,1347.00
1312.93,1489.00
1314.23,1363.00
1315.53,1591.00
1316.83,1240.00
1318.13,1294.00
1319.43,1049.00
1320.73,1238.00
1322.03,1357.00
1323.32,1120.00
1324.62,1130.00
1325.92,1318.00
1327.21,1205.00
1328.51,1176.00
1329.80,1249.00
1331.10,1122.00
1332.39,1175.00
1333.68,1303.00
1334.97,1288.00
1336.27,1525.00
1337.56,1279.00
1338.85,1097.00
1340.14,1159.00
1341.42,1157.00
1342.71,1147.00
1344.00,1510.00
1345.29,1222.00
1346.57,1284.00
1347.86,1353.00
1349.15,1491.00
1350.43,1282.00
1351.71,1224.00
1353.00,1134.00
1354.28,1572.00
1355.56,1285.00
1356.85,1420.00
1358.13,1484.00
1359.41,1397.00
1360.69,1403.00
1361.97,1511.00
1363.25,1219.00
1364.52,1534.00
1365.80,1366.00
1367.08,1691.00
1368.35,1494.00
1369.63,1692.00
1370.91,1765.00
1372.18,1267.00
1373.45,1744.00
1374.73,1597.00
1376.00,1712.00
1377.27,1752.00
1378.54,1597.00
1379.82,1453.00
1381.09,1892.00
1382.36,1737.00
1383.63,1857.00
1384.89,1749.00
1386.16,1935.00
1387.43,1837.00
1388.70,1684.00
1389.96,1973.00
1391.23,1935.00
1392.50,1594.00
1393.76,2092.00
1395.02,1833.00
1396.29,1987.00
1397.55,2086.00
1398.81,2189.00
1400.08,1991.00
1401.34,2006.00
1402.60,2095.00
1403.86,2421.00
1405.12,2375.00
1406.38,2094.00
1407.63,2375.00
1408.89,2061.00
1410.15,2236.00
1411.41,2234.00
1412.66,2342.00
1413.92,2542.00
1415.17,2390.00
1416.43,2464.00
1417.68,2607.00
1418.93,2978.00
1420.19,2664.00
1421.44,2756.00
1422.69,2904.00
1423.94,3089.00
1425.19,3400.00
1426.44,3258.00
1427.69,3125.00
1428.94,3364.00
1430.19,3793.00
1431.43,3908.00
1432.68,3795.00
1433.93,4067.00
1435.17,4193.00
1436.42,4593.00
1437.66,4625.00
1438.91,4800.00
1440.15,4744.00
1441.39,5249.00
1442.64,5312.00
1443.88,5804.00
1445.12,6096.00
1446.36,6240.00
1447.60,6457.00
1448.84,7451.00
1450.08,6872.00
1451.32,7395.00
1452.56,7551.00
1453.79,8020.00
1455.03,7834.00
1456.27,7942.00
1457.50,7752.00
1458.74,7964.00
1459.97,7967.00
1461.21,7761.00
1462.44,7440.00
1463.67,7402.00
1464.91,7107.00
1466.14,6851.00
1467.37,6491.00
1468.60,6195.00
1469.83,5941.00
1471.06,5851.00
1472.29,5350.00
1473.52,5397.00
1474.75,4954.00
1475.97,5067.00
1477.20,4798.00
1478.43,4472.00
1479.65,4450.00
1480.88,4480.00
1482.10,4475.00
1483.33,4517.00
1484.55,4421.00
1485.77,4073.00
1487.00,4126.00
1488.22,4160.00
1489.44,3975.00
1490.66,3593.00
1491.88,3726.00
1493.10,3508.00
1494.32,3466.00
1495.54,3303.00
1496.76,3154.00
1497.97,2903.00
1499.19,2818.00
1500.41,2797.00
1501.62,2798.00
1502.84,2474.00
1504.05,2341.00
1505.27,2230.00
1506.48,2300.00
1507.70,2340.00
1508.91,1973.00
1510.12,2022.00
1511.33,2090.00
1512.54,1916.00
1513.75,2001.00
1514.96,1922.00
1516.17,1823.00
1517.38,1772.00
1518.59,1575.00
1519.80,1582.00
1521.01,1496.00
1522.21,1591.00
1523.42,1584.00
1524.63,1408.00
1525.83,1501.00
1527.04,1263.00
1528.24,1535.00
1529.44,1592.00
1530.65,1394.00
1531.85,1351.00
1533.05,1142.00
1534.25,1129.00
1535.45,1047.00
1536.65,1013.00
1537.85,1089.00
1539.05,1067.00
1540.25,883.00
1541.45,1012.00
1542.65,1253.00
1543.85,885.00
1545.04,1058.00
1546.24,1014.00
1547.44,1025.00
1548.63,877.00
1549.83,1044.00
1551.02,977.00
1552.21,746.00
1553.41,939.00
1554.60,742.00
1555.79,944.00
1556.98,797.00
1558.17,767.00
1559.37,745.00
1560.56,862.00
1561.74,769.00
1562.93,888.00
1564.12,840.00
1565.31,517.00
1566.50,908.00
1567.68,829.00
1568.87,876.00
1570.06,727.00
1571.24,952.00
1572.43,650.00
1573.61,719.00
1574.80,603.00
1575.98,1002.00
1577.16,706.00
1578.34,756.00
1579.53,726.00
1580.71,529.00
1581.89,595.00
1583.07,430.00
1584.25,833.00
1585.43,561.00
1586.61,586.00
1587.78,446.00
1588.96,584.00
1590.14,615.00
1591.32,590.00
1592.49,440.00
1593.67,574.00
1594.84,721.00
1596.02,551.00
1597.19,334.00
1598.37,441.00
1599.54,371.00
1600.71,474.00
1601.88,521.00
1603.06,891.00
1604.23,482.00
1605.40,598.00
1606.57,283.00
1607.74,516.00
1608.91,590.00
1610.07,548.00
1611.24,524.00
1612.41,720.00
1613.58,663.00
1614.74,477.00
1615.91,148.00
1617.08,389.00
1618.24,641.00
1619.41,404.00
1620.57,733.00
1621.73,671.00
1622.90,616.00
1624.06,363.00
1625.22,397.00
1626.38,483.00
1627.54,422.00
1628.70,452.00
1629.87,331.00
1631.02,205.00
1632.18,466.00
1633.34,320.00
1634.50,362.00
1635.66,195.00
1636.82,540.00
1637.97,365.00
1639.13,325.00
1640.28,477.00
1641.44,353.00
1642.59,524.00
1643.75,302.00
1644.90,257.00
1646.06,390.00
1647.21,595.00
1648.36,319.00
1649.51,400.00
1650.66,235.00
1651.81,351.00
1652.97,366.00
1654.11,404.00
1655.26,184.00
1656.41,321.00
1657.56,324.00
1658.71,245.00
1659.86,153.00
1661.00,326.00
1662.15,245.00
1663.30,398.00
1664.44,236.00
1665.59,240.00
1666.73,245.00
1667.88,322.00
1669.02,372.00
1670.16,216.00
1671.30,374.00
1672.45,433.00
1673.59,186.00
1674.73,436.00
1675.87,311.00
1677.01,413.00
1678.15,350.00
1679.29,241.00
1680.43,307.00
1681.57,366.00
1682.70,382.00
1683.84,157.00
1684.98,166.00
1686.12,161.00
1687.25,255.00
1688.39,454.00
1689.52,272.00
1690.66,223.00
1691.79,292.00
1692.92,444.00
1694.06,323.00
1695.19,185.00
1696.32,98.00
1697.45,200.00
1698.58,272.00
1699.72,331.00
1700.85,268.00
1701.98,214.00
1703.10,392.00
1704.23,489.00
1705.36,166.00
1706.49,275.00
1707.62,416.00
1708.74,239.00
1709.87,238.00
1711.00,328.00
1712.12,348.00
1713.25,217.00
1714.37,196.00
1715.50,430.00
1716.62,341.00
1717.74,248.00
1718.87,421.00
1719.99,349.00
1721.11,148.00
1722.23,290.00
1723.35,262.00
1724.47,166.00
1725.59,390.00
1726.71,320.00
1727.83,195.00
1728.95,429.00
1730.07,72.00
1731.19,132.00
1732.30,213.00
1733.42,273.00
1734.54,95.00
1735.65,292.00
1736.77,372.00
1737.88,259.00
1739.00,235.00
1740.11,232.00
1741.23,258.00
1742.34,302.00
1743.45,228.00
1744.56,172.00
1745.68,224.00
1746.79,322.00
1747.90,391.00
1749.01,322.00
1750.12,209.00
1751.23,364.00
1752.34,325.00
1753.45,106.00
1754.55,145.00
1755.66,174.00
1756.77,255.00
1757.88,320.00
1758.98,201.00
1760.09,69.00
1761.19,282.00
1762.30,196.00
1763.40,367.00
1764.51,270.00
1765.61,131.00
1766.71,226.00
1767.82,312.00
1768.92,149.00
1770.02,510.00
1771.12,236.00
1772.22,209.00
1773.32,258.00
1774.42,86.00
1775.52,499.00
1776.62,306.00
1777.72,229.00
1778.82,420.00
1779.92,239.00
1781.01,238.00
1782.11,249.00
1783.21,107.00
1784.30,293.00
1785.40,233.00
1786.50,159.00
1787.59,83.00
1788.68,288.00
1789.78,362.00
1790.87,184.00
1791.96,304.00
1793.06,271.00
1794.15,161.00
1795.24,382.00
1796.33,142.00
1797.42,381.00
1798.51,237.00
1799.60,299.00
1800.69,231.00
1801.78,66.00
1802.87,276.00
1803.96,188.00
1805.05,177.00
1806.13,115.00
1807.22,344.00
1808.31,171.00
1809.39,247.00
1810.48,268.00
1811.56,99.00
1812.65,174.00
1813.73,262.00
1814.82,207.00
1815.90,150.00
1816.98,254.00
1818.07,149.00
1819.15,156.00
1820.23,209.00
1821.31,268.00
1822.39,353.00
1823.47,354.00
1824.55,227.00
1825.63,173.00
1826.71,161.00
1827.79,260.00
1828.87,246.00
1829.95,155.00
1831.02,104.00
1832.10,240.00
1833.18,10.00
1834.25,303.00
1835.33,213.00
1836.40,17.00
1837.48,126.00
1838.55,270.00
1839.63,157.00
1840.70,207.00
1841.77,186.00
1842.85,259.00
1843.92,171.00
1844.99,120.00
1846.06,193.00
1847.13,82.00
1848.20,243.00
1849.28,161.00
1850.34,271.00
1851.41,286.00
1852.48,189.00
1853.55,130.00
1854.62,107.00
1855.69,315.00
1856.76,118.00
1857.82,138.00
1858.89,245.00
1859.95,95.00
1861.02,107.00
1862.09,231.00
1863.15,326.00
1864.21,58.00
1865.28,118.00
1866.34,208.00
1867.41,249.00
1868.47,324.00
1869.53,133.00
1870.59,201.00
1871.65,185.00
1872.71,100.00
1873.78,289.00
1874.84,238.00
1875.90,82.00
1876.96,85.00
1878.01,104.00
1879.07,179.00
1880.13,70.00
1881.19,215.00
1882.25,4.00
1883.30,152.00
1884.36,177.00
1885.42,120.00
1886.47,62.00
1887.53,86.00
1888.58,215.00
1889.64,202.00
1890.69,194.00
1891.74,30.00
1892.80,201.00
1893.85,64.00
1894.90,179.00
1895.96,104.00
1897.01,150.00
1898.06,117.00
1899.11,93.00
1900.16,95.00
1901.21,99.00
1902.26,287.00
1903.31,187.00
1904.36,180.00
1905.41,238.00
1906.45,167.00
1907.50,72.00
1908.55,79.00
1909.60,-7.00
1910.64,-86.00
1911.69,161.00
1912.73,90.00
1913.78,68.00
1914.82,175.00
1915.87,-14.00
1916.91,207.00
1917.96,128.00
1919.00,89.00
1920.04,260.00
1921.08,53.00
1922.13,1.00
1923.17,73.00
1924.21,71.00
1925.25,64.00
1926.29,94.00
1927.33,163.00
1928.37,93.00
1929.41,153.00
1930.45,19.00
1931.49,127.00
1932.53,33.00
1933.56,251.00
1934.60,109.00
1935.64,221.00
1936.67,138.00
1937.71,167.00
1938.75,75.00
1939.78,245.00
1940.82,117.00
1941.85,139.00
1942.89,121.00
1943.92,54.00
1944.95,83.00
1945.99,107.00
1947.02,103.00
1948.05,43.00
1949.08,12.00
1950.11,225.00
1951.15,8.00
1952.18,224.00
1953.21,156.00
1954.24,10.00
1955.27,104.00
1956.30,74.00
1957.32,93.00
1958.35,126.00
1959.38,86.00
1960.41,112.00
1961.44,-34.00
1962.46,2.00
1963.49,95.00
1964.51,181.00
1965.54,-148.00
1966.57,138.00
1967.59,60.00
1968.62,181.00
1969.64,49.00
1970.66,91.00
1971.69,108.00
1972.71,69.00
1973.73,-18.00
1974.75,30.00
1975.78,62.00
1976.80,75.00
1977.82,149.00
1978.84,-28.00
1979.86,67.00
1980.88,11.00
1981.90,96.00
1982.92,-35.00
1983.94,-24.00
1984.96,256.00
1985.98,22.00
1986.99,85.00
1988.01,119.00
1989.03,-71.00
1990.04,157.00
1991.06,19.00
1992.08,21.00
1993.09,44.00
1994.11,82.00
1995.12,-29.00
1996.14,30.00
1997.15,177.00
1998.16,150.00
1999.18,129.00
2000.19,260.00
2001.20,36.00
2002.21,55.00
2003.23,119.00
2004.24,-152.00
2005.25,-62.00
2006.26,36.00
2007.27,74.00
2008.28,155.00
2009.29,65.00
2010.30,112.00
2011.31,288.00
2012.32,79.00
2013.32,61.00
2014.33,0.00
2015.34,94.00
2016.35,31.00
2017.35,0.00
2018.36,-123.00
2019.36,85.00
2020.37,124.00
2021.38,58.00
2022.38,-28.00
2023.38,37.00
2024.39,236.00
2025.39,89.00
2026.40,112.00
2027.40,1.00
2028.40,140.00
2029.40,254.00
2030.41,99.00
2031.41,104.00
2032.41,106.00
2033.41,-48.00
2034.41,-79.00
2035.41,75.00
2036.41,146.00
2037.41,72.00
2038.41,213.00
2039.41,41.00
2040.40,143.00
2041.40,23.00
2042.40,69.00
2043.40,121.00
2044.39,49.00
2045.39,33.00
2046.39,175.00
2047.38,93.00
2048.38,225.00
2049.37,44.00
2050.37,60.00
2051.36,44.00
2052.36,-49.00
2053.35,-67.00
2054.34,2.00
2055.34,-35.00
2056.33,88.00
2057.32,167.00
2058.31,109.00
2059.30,56.00
2060.30,94.00
2061.29,146.00
2062.28,5.00
2063.27,118.00
2064.26,148.00
2065.25,85.00
2066.23,74.00
2067.22,73.00
2068.21,91.00
2069.20,84.00
2070.19,-39.00
2071.17,-21.00
2072.16,154.00
2073.15,131.00
2074.13,30.00
2075.12,-2.00
2076.11,47.00
2077.09,125.00
2078.08,-40.00
2079.06,163.00
2080.04,159.00
2081.03,123.00
2082.01,27.00
2083.00,114.00
2083.98,52.00
2084.96,209.00
2085.94,16.00
2086.92,68.00
2087.91,34.00
2088.89,74.00
2089.87,49.00
2090.85,54.00
2091.83,107.00
2092.81,72.00
2093.79,91.00
2094.77,130.00
2095.74,-34.00
2096.72,40.00
2097.70,60.00
2098.68,91.00
2099.66,42.00
2100.63,-27.00
2101.61,-50.00
2102.59,-23.00
2103.56,69.00
2104.54,136.00
2105.51,36.00
2106.49,97.00
2107.46,10.00
2108.44,22.00
2109.41,-26.00
2110.38,0.00
2111.36,-3.00
2112.33,52.00
2113.30,1.00
2114.27,37.00
2115.25,91.00
2116.22,33.00
2117.19,39.00
2118.16,12.00
2119.13,14.00
2120.10,64.00
2121.07,26.00
2122.04,4.00
2123.01,-9.00
2123.98,113.00
2124.95,73.00
2125.91,123.00
2126.88,-10.00
2127.85,64.00
2128.82,156.00
2129.78,20.00
2130.75,-77.00
2131.72,36.00
2132.68,69.00
2133.65,46.00
2134.61,119.00
2135.58,61.00
2136.54,8.00
2137.51,43.00
2138.47,35.00
2139.43,-11.00
2140.40,0.00
2141.36,42.00
2142.32,-130.00
2143.29,14.00
2144.25,-83.00
2145.21,63.00
2146.17,-27.00
2147.13,-41.00
2148.09,86.00
2149.05,79.00
2150.01,117.00
2150.97,44.00
2151.93,15.00
2152.89,17.00
2153.85,-103.00
2154.81,-37.00
2155.76,-151.00
2156.72,64.00
2157.68,51.00
2158.64,79.00
2159.59,49.00
2160.55,88.00
2161.51,-34.00
2162.46,157.00
2163.42,-59.00
2164.37,58.00
2165.33,-29.00
2166.28,62.00
2167.24,-19.00
2168.19,-12.00
2169.14,-39.00
2170.10,66.00
2171.05,-73.00
2172.00,-75.00
2172.95,-56.00
2173.91,186.00
2174.86,47.00
2175.81,26.00
2176.76,46.00
2177.71,36.00
2178.66,93.00
2179.61,45.00
2180.56,-87.00
2181.51,23.00
2182.46,90.00
2183.41,70.00
2184.36,18.00
2185.30,-4.00
2186.25,-70.00
2187.20,39.00
2188.15,31.00
2189.09,71.00
2190.04,-72.00
2190.99,-75.00
2191.93,6.00
2192.88,-66.00
2193.82,-100.00
2194.77,19.00
2195.71,3.00
2196.66,-111.00
2197.60,-23.00
2198.54,27.00
2199.49,20.00
2200.43,85.00
2201.37,7.00
2202.32,82.00
2203.26,-74.00
2204.20,131.00
2205.14,-56.00
2206.08,63.00
2207.02,-18.00
2207.96,16.00
2208.90,-19.00
2209.84,131.00
2210.78,4.00
2211.72,-50.00
2212.66,20.00
2213.60,-21.00
2214.54,24.00
2215.48,52.00
2216.42,-15.00
2217.35,43.00
2218.29,76.00
2219.23,108.00
2220.16,37.00
2221.10,61.00
2222.04,-31.00
2222.97,130.00
2223.91,46.00
2224.84,19.00
2225.78,25.00
2226.71,-31.00
2227.65,14.00
2228.58,114.00
2229.51,110.00
2230.45,37.00
2231.38,145.00
2232.31,-4.00
2233.24,70.00
2234.18,-4.00
2235.11,80.00
2236.04,13.00
2236.97,29.00
2237.90,-23.00
2238.83,101.00
2239.76,87.00
2240.69,61.00
2241.62,57.00
2242.55,-12.00
2243.48,103.00
2244.41,81.00
2245.34,116.00
2246.27,18.00
2247.19,79.00
2248.12,69.00
2249.05,119.00
2249.98,26.00
2250.90,95.00
2251.83,-54.00
2252.75,143.00
2253.68,151.00
2254.61,151.00
2255.53,86.00
2256.46,59.00
2257.38,190.00
2258.31,50.00
2259.23,-22.00
2260.15,-24.00
2261.08,96.00
2262.00,78.00
2262.92,-62.00
2263.85,86.00
2264.77,45.00
2265.69,39.00
2266.61,223.00
2267.53,157.00
2268.45,62.00
2269.37,90.00
2270.30,23.00
2271.22,45.00
2272.14,13.00
2273.05,89.00
2273.97,64.00
2274.89,18.00
2275.81,7.00
2276.73,116.00
2277.65,28.00
2278.57,145.00
2279.48,133.00
2280.40,31.00
2281.32,10.00
2282.24,185.00
2283.15,116.00
2284.07,148.00
2284.98,-22.00
2285.90,34.00
2286.82,-9.00
2287.73,84.00
2288.65,10.00
2289.56,211.00
2290.47,123.00
2291.39,137.00
2292.30,-2.00
2293.21,20.00
2294.13,-58.00
2295.04,55.00
2295.95,112.00
2296.87,55.00
2297.78,49.00
2298.69,56.00
2299.60,-31.00
2300.51,99.00
2301.42,40.00
2302.33,31.00
2303.24,137.00
2304.15,50.00
2305.06,-46.00
2305.97,26.00
2306.88,125.00
2307.79,-2.00
2308.70,28.00
2309.61,24.00
2310.51,-17.00
2311.42,-63.00
2312.33,33.00
2313.24,68.00
2314.14,-48.00
2315.05,-27.00
2315.96,64.00
2316.86,18.00
2317.77,-28.00
2318.67,131.00
2319.58,-17.00
2320.48,73.00
2321.39,-68.00
2322.29,78.00
2323.20,97.00
2324.10,55.00
2325.00,-43.00
2325.91,94.00
2326.81,-125.00
2327.71,40.00
2328.62,42.00
2329.52,-50.00
2330.42,15.00
2331.32,52.00
2332.22,-18.00
2333.12,118.00
2334.03,44.00
2334.93,116.00
2335.83,-25.00
2336.73,37.00
2337.63,-36.00
2338.53,-60.00
2339.42,6.00
2340.32,85.00
2341.22,85.00
2342.12,37.00
2343.02,19.00
2343.92,113.00
2344.81,69.00
2345.71,39.00
2346.61,-36.00
2347.51,117.00
2348.40,-49.00
2349.30,-41.00
2350.19,0.00
2351.09,88.00
2351.98,-41.00
2352.88,2.00
2353.77,-108.00
2354.67,27.00
2355.56,-97.00
2356.46,20.00
2357.35,41.00
2358.25,-7.00
2359.14,73.00
2360.03,-4.00
2360.92,15.00
2361.82,36.00
2362.71,-28.00
2363.60,12.00
2364.49,-33.00
2365.38,-25.00
2366.28,84.00
2367.17,46.00
2368.06,62.00
2368.95,6.00
2369.84,52.00
2370.73,-52.00
2371.62,-20.00
2372.51,19.00
2373.40,73.00
2374.28,75.00
2375.17,27.00
2376.06,34.00
2376.95,-30.00
2377.84,-14.00
2378.72,-35.00
2379.61,127.00
2380.50,48.00
2381.39,12.00
2382.27,52.00
2383.16,34.00
2384.04,66.00
2384.93,17.00
2385.81,22.00
2386.70,-15.00
2387.59,13.00
2388.47,-54.00
2389.35,-8.00
2390.24,47.00
2391.12,60.00
2392.01,44.00
2392.89,89.00
2393.77,9.00
2394.66,8.00
2395.54,12.00
2396.42,86.00
2397.30,10.00
2398.18,166.00
2399.07,72.00
2399.95,-58.00
2400.83,58.00
2401.71,63.00
2402.59,32.00
2403.47,-78.00
2404.35,40.00
2405.23,57.00
2406.11,40.00
2406.99,-30.00
2407.87,29.00
2408.75,-17.00
2409.62,36.00
2410.50,38.00
2411.38,89.00
2412.26,-21.00
2413.14,-1.00
2414.01,-50.00
2414.89,26.00
2415.77,10.00
2416.64,-68.00
2417.52,146.00
2418.40,59.00
2419.27,52.00
2420.15,0.00
2421.02,-53.00
2421.90,-15.00
2422.77,120.00
2423.65,-13.00
2424.52,93.00
2425.40,86.00
2426.27,-33.00
2427.14,78.00
2428.02,36.00
2428.89,-108.00
2429.76,43.00
2430.64,38.00
2431.51,15.00
2432.38,20.00
2433.25,-69.00
2434.12,-15.00
2434.99,28.00
2435.87,154.00
2436.74,-92.00
2437.61,74.00
2438.48,7.00
2439.35,46.00
2440.22,-116.00
2441.09,45.00
2441.96,-29.00
2442.83,-2.00
2443.69,-20.00
2444.56,58.00
2445.43,-127.00
2446.30,14.00
2447.17,94.00
2448.04,94.00
2448.90,-27.00
2449.77,-1.00
2450.64,-6.00
2451.50,51.00
2452.37,13.00
2453.24,71.00
2454.10,-71.00
2454.97,75.00
2455.83,-40.00
2456.70,71.00
2457.56,27.00
2458.43,81.00
2459.29,20.00
2460.16,13.00
2461.02,66.00
2461.89,2.00
2462.75,71.00
2463.61,72.00
2464.48,80.00
2465.34,91.00
2466.20,44.00
2467.06,83.00
2467.93,32.00
2468.79,142.00
2469.65,82.00
2470.51,101.00
2471.37,-4.00
2472.23,-8.00
2473.10,186.00
2473.96,66.00
2474.82,57.00
2475.68,99.00
2476.54,95.00
2477.40,108.00
2478.26,145.00
2479.11,82.00
2479.97,13.00
2480.83,81.00
2481.69,55.00
2482.55,-12.00
2483.41,92.00
2484.26,114.00
2485.12,6.00
2485.98,-42.00
2486.84,26.00
2487.69,97.00
2488.55,26.00
2489.41,-8.00
2490.26,-2.00
2491.12,44.00
2491.97,-27.00
2492.83,65.00
2493.68,44.00
2494.54,50.00
2495.39,103.00
2496.25,18.00
2497.10,59.00
2497.96,96.00
2498.81,120.00
2499.67,46.00
2500.52,21.00
2501.37,29.00
2502.22,36.00
2503.08,102.00
2503.93,-51.00
2504.78,65.00
2505.63,6.00
2506.49,160.00
2507.34,75.00
2508.19,102.00
2509.04,74.00
2509.89,156.00
2510.74,71.00
2511.59,123.00
2512.44,41.00
2513.29,111.00
2514.14,-35.00
2514.99,80.00
2515.84,57.00
2516.69,-10.00
2517.54,38.00
2518.39,150.00
2519.24,98.00
2520.08,8.00
2520.93,115.00
2521.78,127.00
2522.63,103.00
2523.48,80.00
2524.32,33.00
2525.17,57.00
2526.02,98.00
2526.86,61.00
2527.71,35.00
2528.56,74.00
2529.40,49.00
2530.25,107.00
2531.09,142.00
2531.94,34.00
2532.78,-45.00
2533.63,146.00
2534.47,11.00
2535.32,120.00
2536.16,46.00
2537.00,186.00
2537.85,57.00
2538.69,47.00
2539.53,117.00
2540.38,64.00
2541.22,114.00
2542.06,133.00
2542.90,121.00
2543.75,147.00
2544.59,63.00
2545.43,88.00
2546.27,62.00
2547.11,169.00
2547.95,73.00
2548.79,77.00
2549.64,68.00
2550.48,90.00
2551.32,105.00
2552.16,101.00
2553.00,59.00
2553.84,182.00
2554.67,56.00
2555.51,92.00
2556.35,91.00
2557.19,114.00
2558.03,141.00
2558.87,119.00
2559.71,15.00
2560.54,22.00
2561.38,184.00
2562.22,82.00
2563.06,32.00
2563.89,192.00
2564.73,135.00
2565.57,57.00
2566.40,-7.00
2567.24,67.00
2568.07,114.00
2568.91,97.00
2569.75,97.00
2570.58,153.00
2571.42,76.00
2572.25,49.00
2573.09,130.00
2573.92,141.00
2574.75,61.00
2575.59,49.00
2576.42,17.00
2577.26,86.00
2578.09,33.00
2578.92,83.00
2579.76,130.00
2580.59,-7.00
2581.42,88.00
2582.25,98.00
2583.09,23.00
2583.92,137.00
2584.75,76.00
2585.58,29.00
2586.41,74.00
2587.24,26.00
2588.07,78.00
2588.91,181.00
2589.74,-1.00
2590.57,175.00
2591.40,87.00
2592.23,99.00
2593.06,132.00
2593.89,95.00
2594.72,154.00
2595.54,149.00
2596.37,65.00
2597.20,142.00
2598.03,131.00
2598.86,85.00
2599.69,65.00
2600.52,81.00
2601.34,-34.00
2602.17,-14.00
2603.00,138.00
2603.82,134.00
2604.65,145.00
2605.48,55.00
2606.30,160.00
2607.13,126.00
2607.96,85.00
2608.78,55.00
2609.61,30.00
2610.43,182.00
2611.26,237.00
2612.08,56.00
2612.91,146.00
2613.73,89.00
2614.56,167.00
2615.38,134.00
2616.21,104.00
2617.03,173.00
2617.86,12.00
2618.68,121.00
2619.50,97.00
2620.33,43.00
2621.15,31.00
2621.97,85.00
2622.79,49.00
2623.62,72.00
2624.44,49.00
2625.26,171.00
2626.08,92.00
2626.90,89.00
2627.72,96.00
2628.55,66.00
2629.37,132.00
2630.19,176.00
2631.01,157.00
2631.83,39.00
2632.65,137.00
2633.47,36.00
2634.29,95.00
2635.11,48.00
2635.93,87.00
2636.75,59.00
2637.57,56.00
2638.39,53.00
2639.20,82.00
2640.02,181.00
2640.84,-85.00
2641.66,115.00
2642.48,47.00
2643.29,141.00
2644.11,0.00
2644.93,86.00
2645.75,106.00
2646.56,43.00
2647.38,153.00
2648.20,22.00
2649.01,0.00
2649.83,0.00
2650.65,0.00
2651.46,0.00
2652.28,0.00
