ENLIGHTEN Version,1.7.2
Measurement ID,20190904-111854-213955-WP-00438
Serial Number,WP-00438
Label,HDPE-2
Integration Time,1000
Timestamp,18:54.2
Note,
Temperature,0
CCD C0,807.1400146
CCD C1,0.117610998
CCD C2,-1.64E-05
CCD C3,2.33E-09
CCD Offset,0
CCD Gain,8
Laser Wavelength,785
Laser Enable,TRUE
Laser Power,100
Laser Temperature,0
Pixel Count,1952
,
Wavenumber,Processed
349.43,0
351.23,0
353.04,0
354.84,6963
356.64,6053
358.44,7138
360.24,6336
362.04,7067
363.84,6260
365.64,7039
367.43,6133
369.23,7049
371.02,6408
372.81,7146
374.6,6354
376.39,7158
378.18,6394
379.97,7201
381.76,6169
383.55,7063
385.33,6240
387.11,7102
388.9,5956
390.68,7112
392.46,6350
394.24,6971
396.02,6319
397.8,6898
399.58,6327
401.35,6861
403.13,6311
404.9,7033
406.68,6433
408.45,7155
410.22,6337
411.99,7178
413.76,6525
415.53,7422
417.3,6695
419.06,7753
420.83,6705
422.59,7677
424.35,6762
426.12,7852
427.88,7280
429.64,7803
431.4,7167
433.16,7927
434.91,7246
436.67,7782
438.43,7455
440.18,8090
441.93,7715
443.69,8098
445.44,7597
447.19,7936
448.94,7258
450.69,7928
452.43,7137
454.18,7792
455.92,7095
457.67,7668
459.41,6704
461.16,7667
462.9,6747
464.64,7379
466.38,6610
468.12,7383
469.85,6390
471.59,6918
473.33,6250
475.06,6889
476.8,6158
478.53,6856
480.26,6359
481.99,6357
483.72,5927
485.45,6627
487.18,5984
488.91,6239
490.63,5836
492.36,6610
494.08,5750
495.8,6500
497.53,5672
499.25,6179
500.97,5825
502.69,6185
504.41,5776
506.12,6337
507.84,6119
509.56,6291
511.27,5908
512.98,6298
514.7,5743
516.41,6313
518.12,5843
519.83,6149
521.54,5544
523.25,6382
524.95,5614
526.66,6322
528.36,5792
530.07,6280
531.77,5481
533.47,6258
535.18,5484
536.88,6207
538.58,5530
540.27,6231
541.97,5804
543.67,6188
545.36,5501
547.06,6468
548.75,5886
550.45,6082
552.14,5779
553.83,6388
555.52,5658
557.21,6374
558.9,5797
560.58,6397
562.27,5813
563.96,6474
565.64,5778
567.32,6621
569.01,6068
570.69,6225
572.37,5984
574.05,6759
575.73,6083
577.41,6925
579.08,6064
580.76,7046
582.44,6328
584.11,6946
585.78,6366
587.46,7134
589.13,6801
590.8,7335
592.47,6664
594.14,7702
595.81,7179
597.47,7828
599.14,7204
600.8,7912
602.47,7216
604.13,7564
605.79,7264
607.46,7785
609.12,7026
610.78,7649
612.44,7121
614.09,7612
615.75,7186
617.41,7482
619.06,7084
620.72,7448
622.37,6968
624.02,7191
625.67,6582
627.33,7072
628.97,6558
630.62,7145
632.27,6485
633.92,6720
635.57,5885
637.21,6620
638.86,5955
640.5,6370
642.14,5778
643.78,6423
645.42,5758
647.06,6089
648.7,5588
650.34,6095
651.98,5316
653.62,5873
655.25,5649
656.89,5896
658.52,5527
660.15,5760
661.79,5224
663.42,5669
665.05,5023
666.68,5625
668.31,5259
669.93,5640
671.56,4928
673.19,5549
674.81,5176
676.43,5534
678.06,4897
679.68,5618
681.3,4950
682.92,5390
684.54,5084
686.16,5496
687.78,4833
689.4,5351
691.01,4848
692.63,5231
694.24,4798
695.86,5301
697.47,4713
699.08,5552
700.69,5015
702.3,5297
703.91,4762
705.52,5320
707.13,4767
708.74,5266
710.34,4829
711.95,5356
713.55,4861
715.15,5307
716.76,5061
718.36,5480
719.96,4933
721.56,5511
723.16,5124
724.76,5499
726.35,4872
727.95,5480
729.55,5094
731.14,5256
732.73,4871
734.33,5405
735.92,5009
737.51,5250
739.1,4743
740.69,5402
742.28,4641
743.87,5592
745.46,4868
747.04,5499
748.63,4952
750.21,5417
751.8,5133
753.38,5246
754.96,4910
756.54,5366
758.12,4932
759.7,5085
761.28,4992
762.86,5348
764.44,4922
766.01,5337
767.59,5038
769.16,5376
770.74,4914
772.31,5504
773.88,4863
775.45,5314
777.02,4763
778.59,5641
780.16,4756
781.73,5567
783.3,4802
784.86,5442
786.43,5131
787.99,5330
789.56,5130
791.12,5864
792.68,5016
794.24,5595
795.8,5279
797.36,5360
798.92,5299
800.48,5542
802.04,5207
803.59,5673
805.15,5463
806.7,5810
808.26,5194
809.81,5983
811.36,5039
812.91,5622
814.46,5334
816.01,6017
817.56,5449
819.11,6071
820.66,5519
822.2,6033
823.75,5693
825.3,5871
826.84,5391
828.38,6046
829.93,5555
831.47,5893
833.01,5773
834.55,5883
836.09,5559
837.63,6257
839.16,5849
840.7,6071
842.24,6146
843.77,6491
845.31,5918
846.84,6457
848.37,5857
849.9,6672
851.44,6033
852.97,6614
854.5,5957
856.03,6690
857.55,6075
859.08,6808
860.61,6097
862.13,6749
863.66,5902
865.18,6882
866.7,6192
868.23,7193
869.75,6444
871.27,6832
872.79,6470
874.31,6736
875.83,6102
877.35,7213
878.86,6318
880.38,7046
881.89,6310
883.41,6987
884.92,6410
886.44,6775
887.95,6443
889.46,6894
890.97,6116
892.48,7100
893.99,6394
895.5,6951
897.01,5987
898.51,6801
900.02,6204
901.52,6724
903.03,6156
904.53,6876
906.04,6149
907.54,6509
909.04,5948
910.54,6479
912.04,6119
913.54,6234
915.04,5713
916.53,6495
918.03,5942
919.53,6169
921.02,6148
922.52,6450
924.01,5679
925.5,6193
927,5522
928.49,5987
929.98,5602
931.47,5834
932.96,5768
934.44,6205
935.93,5553
937.42,5824
938.9,5372
940.39,6314
941.87,5681
943.36,5656
944.84,5237
946.32,5969
947.8,5356
949.29,5736
950.77,5402
952.24,5710
953.72,5606
955.2,5553
956.68,5114
958.15,5476
959.63,5430
961.1,5661
962.58,5117
964.05,5367
965.52,5178
967,5637
968.47,5161
969.94,5943
971.41,5269
972.87,5423
974.34,4904
975.81,5469
977.28,4904
978.74,5654
980.21,5179
981.67,5395
983.13,5511
984.6,5703
986.06,5112
987.52,5536
988.98,5165
990.44,5319
991.9,5044
993.36,5700
994.82,5204
996.27,5317
997.73,5254
999.18,5758
1000.64,5066
1002.09,5446
1003.55,5419
1005,5538
1006.45,5012
1007.9,5323
1009.35,5389
1010.8,5891
1012.25,5362
1013.7,5883
1015.14,5338
1016.59,6013
1018.04,5461
1019.48,5916
1020.93,5359
1022.37,5729
1023.81,5441
1025.25,6003
1026.7,5358
1028.14,5848
1029.58,5724
1031.02,6461
1032.45,6052
1033.89,6706
1035.33,6344
1036.77,7294
1038.2,7138
1039.64,7745
1041.07,8002
1042.5,8502
1043.94,8875
1045.37,9682
1046.8,9897
1048.23,10653
1049.66,10538
1051.09,11784
1052.52,11992
1053.95,12722
1055.37,13128
1056.8,14469
1058.23,14256
1059.65,15419
1061.08,14790
1062.5,15677
1063.92,14508
1065.34,15200
1066.76,13854
1068.19,13740
1069.61,12528
1071.02,12491
1072.44,11407
1073.86,11183
1075.28,10383
1076.69,10629
1078.11,9188
1079.53,9710
1080.94,9212
1082.35,9263
1083.77,8753
1085.18,9357
1086.59,8415
1088,8650
1089.41,8230
1090.82,8419
1092.23,8127
1093.64,8087
1095.04,7488
1096.45,7909
1097.86,7532
1099.26,8139
1100.67,7256
1102.07,8305
1103.47,7923
1104.88,8863
1106.28,8996
1107.68,9687
1109.08,9363
1110.48,10402
1111.88,10321
1113.28,11001
1114.67,11130
1116.07,11880
1117.47,11692
1118.86,12817
1120.26,13069
1121.65,14085
1123.05,14211
1124.44,15445
1125.83,15221
1127.22,16276
1128.61,16095
1130,16385
1131.39,15658
1132.78,15477
1134.17,14484
1135.56,13963
1136.94,12626
1138.33,12966
1139.72,10794
1141.1,10739
1142.48,9690
1143.87,9912
1145.25,8633
1146.63,9468
1148.01,8547
1149.39,8663
1150.77,7868
1152.15,8185
1153.53,7590
1154.91,8264
1156.29,7774
1157.66,8038
1159.04,7715
1160.41,8137
1161.79,7518
1163.16,7908
1164.54,7612
1165.91,8571
1167.28,7413
1168.65,8377
1170.02,7611
1171.39,7952
1172.76,7545
1174.13,7914
1175.5,7079
1176.86,7599
1178.23,6741
1179.6,7418
1180.96,6858
1182.33,7162
1183.69,6103
1185.05,6573
1186.42,6267
1187.78,6279
1189.14,6234
1190.5,6429
1191.86,6044
1193.22,6245
1194.58,6047
1195.94,6390
1197.29,5704
1198.65,6161
1200.01,5626
1201.36,6229
1202.72,5804
1204.07,5990
1205.42,5867
1206.78,6260
1208.13,5356
1209.48,6241
1210.83,5366
1212.18,6012
1213.53,5532
1214.88,5834
1216.23,5623
1217.58,5879
1218.92,5862
1220.27,5889
1221.61,5512
1222.96,6395
1224.3,5345
1225.65,5763
1226.99,5348
1228.33,5433
1229.67,5168
1231.01,5562
1232.36,5424
1233.7,5665
1235.03,5336
1236.37,5666
1237.71,5353
1239.05,5631
1240.38,5394
1241.72,5700
1243.06,5635
1244.39,5651
1245.72,5531
1247.06,5815
1248.39,5586
1249.72,5783
1251.05,5732
1252.39,6010
1253.72,5882
1255.05,5916
1256.37,5644
1257.7,6125
1259.03,5714
1260.36,6395
1261.68,5992
1263.01,6659
1264.33,6586
1265.66,7089
1266.98,6901
1268.31,7602
1269.63,7777
1270.95,8623
1272.27,8540
1273.59,9786
1274.91,9809
1276.23,10763
1277.55,10623
1278.87,11190
1280.19,11021
1281.51,12194
1282.82,12354
1284.14,12979
1285.45,13347
1286.77,14024
1288.08,14178
1289.39,15424
1290.71,16034
1292.02,17700
1293.33,17881
1294.64,18889
1295.95,18368
1297.26,19005
1298.57,18383
1299.88,18468
1301.19,16951
1302.49,16808
1303.8,14656
1305.11,14465
1306.41,13124
1307.72,12593
1309.02,11512
1310.32,11136
1311.63,9800
1312.93,9677
1314.23,8856
1315.53,8822
1316.83,8165
1318.13,8016
1319.43,7357
1320.73,7620
1322.03,6549
1323.32,6555
1324.62,6047
1325.92,6453
1327.21,5606
1328.51,5800
1329.8,5260
1331.1,5712
1332.39,5065
1333.68,5428
1334.97,4724
1336.27,5246
1337.56,4926
1338.85,4979
1340.14,4819
1341.42,4854
1342.71,5016
1344,4904
1345.29,4558
1346.57,4919
1347.86,4670
1349.15,4750
1350.43,4661
1351.71,5483
1353,4290
1354.28,4805
1355.56,4902
1356.85,5044
1358.13,4886
1359.41,5126
1360.69,4581
1361.97,5251
1363.25,5028
1364.52,5225
1365.8,4699
1367.08,5048
1368.35,4986
1369.63,5390
1370.91,5042
1372.18,5279
1373.45,4896
1374.73,5161
1376,4879
1377.27,5131
1378.54,4760
1379.82,4859
1381.09,4792
1382.36,4969
1383.63,4806
1384.89,5439
1386.16,5004
1387.43,5364
1388.7,4790
1389.96,5428
1391.23,5133
1392.5,6014
1393.76,5443
1395.02,6389
1396.29,5828
1397.55,6342
1398.81,6065
1400.08,7003
1401.34,6870
1402.6,7313
1403.86,7442
1405.12,8117
1406.38,7602
1407.63,8278
1408.89,8674
1410.15,9660
1411.41,9867
1412.66,10962
1413.92,11248
1415.17,12701
1416.43,12384
1417.68,14159
1418.93,14411
1420.19,15695
1421.44,15838
1422.69,16446
1423.94,16145
1425.19,17191
1426.44,17334
1427.69,18158
1428.94,17798
1430.19,19001
1431.43,18816
1432.68,19918
1433.93,20087
1435.17,21868
1436.42,21999
1437.66,23076
1438.91,23308
1440.15,24093
1441.39,24112
1442.64,24864
1443.88,25040
1445.12,24883
1446.36,24151
1447.6,23993
1448.84,23736
1450.08,23384
1451.32,22507
1452.56,22170
1453.79,20994
1455.03,21289
1456.27,20415
1457.5,20119
1458.74,19117
1459.97,19363
1461.21,18616
1462.44,18426
1463.67,17911
1464.91,17892
1466.14,16974
1467.37,17086
1468.6,15689
1469.83,16011
1471.06,14317
1472.29,13983
1473.52,13069
1474.75,12972
1475.97,11722
1477.2,11539
1478.43,10739
1479.65,10337
1480.88,9721
1482.1,9469
1483.33,8471
1484.55,8143
1485.77,7922
1487,7972
1488.22,7155
1489.44,7202
1490.66,6584
1491.88,6805
1493.1,6290
1494.32,6266
1495.54,5454
1496.76,5990
1497.97,5688
1499.19,5763
1500.41,5192
1501.62,5356
1502.84,5050
1504.05,5222
1505.27,4974
1506.48,5004
1507.7,4776
1508.91,4783
1510.12,4334
1511.33,4798
1512.54,4533
1513.75,4339
1514.96,4256
1516.17,4675
1517.38,4324
1518.59,4686
1519.8,4213
1521.01,4907
1522.21,4322
1523.42,4629
1524.63,4255
1525.83,4525
1527.04,4005
1528.24,4649
1529.44,4071
1530.65,4099
1531.85,3758
1533.05,4009
1534.25,3720
1535.45,4266
1536.65,3804
1537.85,4121
1539.05,3782
1540.25,4279
1541.45,3872
1542.65,4421
1543.85,3917
1545.04,3987
1546.24,3531
1547.44,3891
1548.63,3606
1549.83,3990
1551.02,3601
1552.21,3898
1553.41,3608
1554.6,4027
1555.79,3568
1556.98,3859
1558.17,3798
1559.37,3847
1560.56,3592
1561.74,3815
1562.93,3427
1564.12,3840
1565.31,3271
1566.5,3610
1567.68,3807
1568.87,3646
1570.06,3370
1571.24,3731
1572.43,3328
1573.61,3684
1574.8,3481
1575.98,3747
1577.16,3527
1578.34,3755
1579.53,3098
1580.71,3631
1581.89,3250
1583.07,3420
1584.25,3248
1585.43,3518
1586.61,3019
1587.78,3319
1588.96,3225
1590.14,3569
1591.32,3188
1592.49,3478
1593.67,3169
1594.84,3476
1596.02,3101
1597.19,3179
1598.37,2961
1599.54,3353
1600.71,3150
1601.88,3354
1603.06,3080
1604.23,3149
1605.4,3130
1606.57,3283
1607.74,2957
1608.91,3255
1610.07,2922
1611.24,3191
1612.41,3141
1613.58,3288
1614.74,2968
1615.91,3198
1617.08,3117
1618.24,3027
1619.41,2859
1620.57,3247
1621.73,2862
1622.9,3218
1624.06,3152
1625.22,3310
1626.38,2907
1627.54,3065
1628.7,2767
1629.87,3080
1631.02,3203
1632.18,3253
1633.34,2834
1634.5,3141
1635.66,2992
1636.82,3040
1637.97,3139
1639.13,3157
1640.28,2996
1641.44,3184
1642.59,2866
1643.75,3050
1644.9,2895
1646.06,3091
1647.21,2650
1648.36,3118
1649.51,2667
1650.66,3121
1651.81,2860
1652.97,2861
1654.11,2601
1655.26,2989
1656.41,2527
1657.56,2912
1658.71,2845
1659.86,2935
1661,2713
1662.15,3204
1663.3,2697
1664.44,2809
1665.59,2554
1666.73,3025
1667.88,2632
1669.02,2882
1670.16,2767
1671.3,2841
1672.45,2744
1673.59,2895
1674.73,2499
1675.87,2908
1677.01,2916
1678.15,2743
1679.29,2682
1680.43,3038
1681.57,2929
1682.7,2985
1683.84,2626
1684.98,3067
1686.12,2625
1687.25,2725
1688.39,2593
1689.52,2947
1690.66,2610
1691.79,3019
1692.92,2879
1694.06,2995
1695.19,2600
1696.32,2824
1697.45,2746
1698.58,2964
1699.72,2738
1700.85,2932
1701.98,2816
1703.1,2965
1704.23,2949
1705.36,2818
1706.49,2625
1707.62,3067
1708.74,2709
1709.87,2819
1711,2554
1712.12,2944
1713.25,2904
1714.37,2958
1715.5,2368
1716.62,2843
1717.74,2702
1718.87,3032
1719.99,2798
1721.11,2692
1722.23,2667
1723.35,3080
1724.47,2648
1725.59,3121
1726.71,2789
1727.83,2869
1728.95,2797
1730.07,3080
1731.19,2798
1732.3,2786
1733.42,2761
1734.54,2917
1735.65,2659
1736.77,2953
1737.88,2760
1739,3037
1740.11,2536
1741.23,2885
1742.34,2638
1743.45,3139
1744.56,2768
1745.68,3122
1746.79,2681
1747.9,2876
1749.01,2809
1750.12,2926
1751.23,2640
1752.34,2866
1753.45,2588
1754.55,2934
1755.66,2662
1756.77,2805
1757.88,2618
1758.98,3046
1760.09,2667
1761.19,2895
1762.3,2352
1763.4,2749
1764.51,2673
1765.61,2676
1766.71,2636
1767.82,3140
1768.92,2628
1770.02,2917
1771.12,2319
1772.22,2814
1773.32,2431
1774.42,2809
1775.52,2422
1776.62,2765
1777.72,2617
1778.82,2660
1779.92,2477
1781.01,2780
1782.11,2526
1783.21,2508
1784.3,2329
1785.4,2741
1786.5,2599
1787.59,2663
1788.68,2373
1789.78,2881
1790.87,2511
1791.96,2617
1793.06,2320
1794.15,2737
1795.24,2534
1796.33,2685
1797.42,2532
1798.51,2560
1799.6,2250
1800.69,2540
1801.78,2310
1802.87,2613
1803.96,2303
1805.05,2569
1806.13,2344
1807.22,2511
1808.31,2142
1809.39,2554
1810.48,2300
1811.56,2591
1812.65,2332
1813.73,2273
1814.82,2257
1815.9,2324
1816.98,2209
1818.07,2397
1819.15,2115
1820.23,2379
1821.31,2228
1822.39,2360
1823.47,2035
1824.55,2573
1825.63,2097
1826.71,2166
1827.79,1985
1828.87,2220
1829.95,1987
1831.02,2171
1832.1,1869
1833.18,2116
1834.25,2021
1835.33,2063
1836.4,2016
1837.48,2165
1838.55,1871
1839.63,2163
1840.7,1910
1841.77,2115
1842.85,2006
1843.92,2038
1844.99,1624
1846.06,1960
1847.13,1707
1848.2,1889
1849.28,1755
1850.34,2013
1851.41,1611
1852.48,1880
1853.55,1667
1854.62,2113
1855.69,1883
1856.76,2068
1857.82,1506
1858.89,1795
1859.95,1777
1861.02,2085
1862.09,1579
1863.15,2055
1864.21,1724
1865.28,1903
1866.34,1677
1867.41,1931
1868.47,1676
1869.53,1841
1870.59,1730
1871.65,1846
1872.71,1624
1873.78,1655
1874.84,1742
1875.9,1756
1876.96,1707
1878.01,1870
1879.07,1601
1880.13,1842
1881.19,1589
1882.25,1751
1883.3,1605
1884.36,1789
1885.42,1475
1886.47,1892
1887.53,1576
1888.58,1749
1889.64,1649
1890.69,1661
1891.74,1398
1892.8,1747
1893.85,1592
1894.9,1606
1895.96,1527
1897.01,1910
1898.06,1669
1899.11,1696
1900.16,1563
1901.21,1771
1902.26,1402
1903.31,1796
1904.36,1462
1905.41,1660
1906.45,1578
1907.5,1674
1908.55,1471
1909.6,1632
1910.64,1548
1911.69,1830
1912.73,1437
1913.78,1734
1914.82,1484
1915.87,1687
1916.91,1261
1917.96,1704
1919,1524
1920.04,1527
1921.08,1429
1922.13,1702
1923.17,1421
1924.21,1502
1925.25,1554
1926.29,1586
1927.33,1357
1928.37,1547
1929.41,1294
1930.45,1644
1931.49,1495
1932.53,1621
1933.56,1474
1934.6,1654
1935.64,1308
1936.67,1665
1937.71,1498
1938.75,1652
1939.78,1510
1940.82,1702
1941.85,1356
1942.89,1594
1943.92,1407
1944.95,1705
1945.99,1387
1947.02,1727
1948.05,1448
1949.08,1672
1950.11,1498
1951.15,1676
1952.18,1344
1953.21,1667
1954.24,1517
1955.27,1652
1956.3,1387
1957.32,1513
1958.35,1425
1959.38,1687
1960.41,1520
1961.44,1571
1962.46,1300
1963.49,1615
1964.51,1451
1965.54,1578
1966.57,1394
1967.59,1669
1968.62,1362
1969.64,1532
1970.66,1379
1971.69,1606
1972.71,1390
1973.73,1663
1974.75,1319
1975.78,1639
1976.8,1264
1977.82,1627
1978.84,1331
1979.86,1441
1980.88,1375
1981.9,1495
1982.92,1314
1983.94,1471
1984.96,1324
1985.98,1506
1986.99,1367
1988.01,1506
1989.03,1165
1990.04,1634
1991.06,1114
1992.08,1499
1993.09,1307
1994.11,1434
1995.12,1315
1996.14,1562
1997.15,1298
1998.16,1366
1999.18,1191
2000.19,1396
2001.2,1327
2002.21,1513
2003.23,1309
2004.24,1597
2005.25,1317
2006.26,1435
2007.27,1248
2008.28,1462
2009.29,1181
2010.3,1428
2011.31,1271
2012.32,1369
2013.32,1236
2014.33,1380
2015.34,1277
2016.35,1517
2017.35,1144
2018.36,1409
2019.36,1264
2020.37,1316
2021.38,1199
2022.38,1374
2023.38,1165
2024.39,1396
2025.39,1118
2026.4,1407
2027.4,1046
2028.4,1320
2029.4,1085
2030.41,1349
2031.41,1155
2032.41,1336
2033.41,1177
2034.41,1452
2035.41,1170
2036.41,1335
2037.41,1185
2038.41,1415
2039.41,1292
2040.4,1431
2041.4,1210
2042.4,1458
2043.4,1273
2044.39,1285
2045.39,1054
2046.39,1484
2047.38,1224
2048.38,1291
2049.37,1193
2050.37,1290
2051.36,1153
2052.36,1425
2053.35,1208
2054.34,1298
2055.34,1104
2056.33,1239
2057.32,1137
2058.31,1299
2059.3,1073
2060.3,1320
2061.29,1221
2062.28,1284
2063.27,1148
2064.26,1302
2065.25,1148
2066.23,1298
2067.22,1213
2068.21,1167
2069.2,1132
2070.19,1289
2071.17,1106
2072.16,1250
2073.15,1110
2074.13,1356
2075.12,1128
2076.11,1279
2077.09,1124
2078.08,1365
2079.06,1007
2080.04,1285
2081.03,1112
2082.01,1296
2083,1165
2083.98,1398
2084.96,1193
2085.94,1239
2086.92,1126
2087.91,1263
2088.89,1089
2089.87,1089
2090.85,1138
2091.83,1353
2092.81,1082
2093.79,1288
2094.77,1160
2095.74,1298
2096.72,1096
2097.7,1229
2098.68,1118
2099.66,1051
2100.63,1125
2101.61,1105
2102.59,1038
2103.56,1153
2104.54,1098
2105.51,1064
2106.49,984
2107.46,1313
2108.44,1058
2109.41,1169
2110.38,1016
2111.36,1197
2112.33,929
2113.3,1171
2114.27,1146
2115.25,1070
2116.22,950
2117.19,1147
2118.16,925
2119.13,1200
2120.1,918
2121.07,1073
2122.04,880
2123.01,1155
2123.98,900
2124.95,1042
2125.91,965
2126.88,1091
2127.85,910
2128.82,1105
2129.78,1013
2130.75,1035
2131.72,926
2132.68,1078
2133.65,916
2134.61,1027
2135.58,880
2136.54,954
2137.51,783
2138.47,1008
2139.43,899
2140.4,1004
2141.36,778
2142.32,1085
2143.29,969
2144.25,1093
2145.21,789
2146.17,1066
2147.13,810
2148.09,1011
2149.05,825
2150.01,930
2150.97,974
2151.93,1097
2152.89,858
2153.85,933
2154.81,922
2155.76,986
2156.72,741
2157.68,922
2158.64,853
2159.59,1110
2160.55,887
2161.51,1071
2162.46,852
2163.42,1096
2164.37,872
2165.33,1076
2166.28,941
2167.24,994
2168.19,945
2169.14,1068
2170.1,1096
2171.05,1145
2172,910
2172.95,1150
2173.91,993
2174.86,1157
2175.81,1005
2176.76,1172
2177.71,1110
2178.66,1200
2179.61,1049
2180.56,1087
2181.51,994
2182.46,1323
2183.41,993
2184.36,1232
2185.3,953
2186.25,1163
2187.2,1009
2188.15,1183
2189.09,1068
2190.04,1144
2190.99,1027
2191.93,1246
2192.88,1042
2193.82,1355
2194.77,1072
2195.71,1098
2196.66,1011
2197.6,1233
2198.54,1011
2199.49,1159
2200.43,948
2201.37,1059
2202.32,891
2203.26,1122
2204.2,1016
2205.14,1068
2206.08,902
2207.02,1185
2207.96,1036
2208.9,1200
2209.84,898
2210.78,1061
2211.72,912
2212.66,1206
2213.6,1010
2214.54,1187
2215.48,883
2216.42,1251
2217.35,1011
2218.29,1253
2219.23,1007
2220.16,1113
2221.1,994
2222.04,1223
2222.97,962
2223.91,1190
2224.84,969
2225.78,1221
2226.71,993
2227.65,1166
2228.58,1044
2229.51,1045
2230.45,1042
2231.38,1259
2232.31,1001
2233.24,1213
2234.18,1072
2235.11,1151
2236.04,1053
2236.97,1379
2237.9,1114
2238.83,1302
2239.76,1136
2240.69,1277
2241.62,1053
2242.55,1230
2243.48,1038
2244.41,1345
2245.34,1047
2246.27,1361
2247.19,902
2248.12,1332
2249.05,1027
2249.98,1229
2250.9,1066
2251.83,1244
2252.75,1073
2253.68,1177
2254.61,907
2255.53,1257
2256.46,1157
2257.38,1119
2258.31,907
2259.23,1275
2260.15,1032
2261.08,1231
2262,1142
2262.92,1224
2263.85,1066
2264.77,1132
2265.69,995
2266.61,1335
2267.53,1189
2268.45,1444
2269.37,1124
2270.3,1283
2271.22,1115
2272.14,1340
2273.05,1097
2273.97,1250
2274.89,1102
2275.81,1249
2276.73,1008
2277.65,1231
2278.57,1154
2279.48,1157
2280.4,1083
2281.32,1057
2282.24,1126
2283.15,1285
2284.07,974
2284.98,1227
2285.9,956
2286.82,1305
2287.73,1043
2288.65,1254
2289.56,1141
2290.47,1185
2291.39,1094
2292.3,1183
2293.21,1029
2294.13,1225
2295.04,1006
2295.95,1231
2296.87,996
2297.78,1147
2298.69,848
2299.6,1091
2300.51,941
2301.42,1128
2302.33,1067
2303.24,1090
2304.15,890
2305.06,1083
2305.97,928
2306.88,1038
2307.79,913
2308.7,1116
2309.61,831
2310.51,1128
2311.42,811
2312.33,1183
2313.24,948
2314.14,1074
2315.05,839
2315.96,1005
2316.86,865
2317.77,905
2318.67,922
2319.58,1112
2320.48,904
2321.39,1013
2322.29,917
2323.2,1108
2324.1,762
2325,1052
2325.91,860
2326.81,910
2327.71,874
2328.62,1026
2329.52,838
2330.42,1224
2331.32,851
2332.22,1015
2333.12,899
2334.03,920
2334.93,720
2335.83,1059
2336.73,771
2337.63,954
2338.53,806
2339.42,1087
2340.32,681
2341.22,824
2342.12,799
2343.02,981
2343.92,852
2344.81,909
2345.71,738
2346.61,955
2347.51,679
2348.4,1201
2349.3,657
2350.19,795
2351.09,730
2351.98,957
2352.88,906
2353.77,993
2354.67,650
2355.56,872
2356.46,708
2357.35,1099
2358.25,815
2359.14,1013
2360.03,747
2360.92,963
2361.82,853
2362.71,1018
2363.6,735
2364.49,913
2365.38,651
2366.28,984
2367.17,760
2368.06,954
2368.95,727
2369.84,970
2370.73,847
2371.62,1024
2372.51,718
2373.4,1019
2374.28,805
2375.17,972
2376.06,750
2376.95,843
2377.84,627
2378.72,934
2379.61,655
2380.5,858
2381.39,658
2382.27,955
2383.16,641
2384.04,900
2384.93,804
2385.81,910
2386.7,815
2387.59,997
2388.47,689
2389.35,964
2390.24,658
2391.12,960
2392.01,733
2392.89,1007
2393.77,792
2394.66,1019
2395.54,563
2396.42,908
2397.3,820
2398.18,1023
2399.07,762
2399.95,954
2400.83,668
2401.71,1084
2402.59,821
2403.47,950
2404.35,717
2405.23,992
2406.11,723
2406.99,1215
2407.87,883
2408.75,1072
2409.62,871
2410.5,1146
2411.38,851
2412.26,879
2413.14,782
2414.01,1040
2414.89,875
2415.77,1173
2416.64,799
2417.52,1060
2418.4,797
2419.27,1203
2420.15,856
2421.02,967
2421.9,757
2422.77,1102
2423.65,733
2424.52,989
2425.4,947
2426.27,1058
2427.14,801
2428.02,1101
2428.89,663
2429.76,1153
2430.64,930
2431.51,1134
2432.38,878
2433.25,1129
2434.12,808
2434.99,1168
2435.87,870
2436.74,1105
2437.61,766
2438.48,980
2439.35,939
2440.22,1095
2441.09,904
2441.96,1259
2442.83,780
2443.69,1162
2444.56,880
2445.43,1108
2446.3,966
2447.17,1251
2448.04,895
2448.9,970
2449.77,876
2450.64,935
2451.5,981
2452.37,954
2453.24,850
2454.1,995
2454.97,937
2455.83,1076
2456.7,920
2457.56,1022
2458.43,863
2459.29,1077
2460.16,867
2461.02,1088
2461.89,777
2462.75,904
2463.61,823
2464.48,987
2465.34,881
2466.2,1017
2467.06,861
2467.93,1045
2468.79,778
2469.65,1165
2470.51,913
2471.37,1061
2472.23,865
2473.1,989
2473.96,986
2474.82,1147
2475.68,710
2476.54,1047
2477.4,768
2478.26,1126
2479.11,834
2479.97,1176
2480.83,857
2481.69,1059
2482.55,900
2483.41,1038
2484.26,869
2485.12,1159
2485.98,771
2486.84,940
2487.69,883
2488.55,985
2489.41,782
2490.26,1150
2491.12,864
2491.97,1112
2492.83,799
2493.68,1180
2494.54,677
2495.39,1049
2496.25,772
2497.1,1057
2497.96,867
2498.81,1265
2499.67,808
2500.52,968
2501.37,776
2502.22,1010
2503.08,937
2503.93,1314
2504.78,888
2505.63,1186
2506.49,932
2507.34,1261
2508.19,901
2509.04,1038
2509.89,802
2510.74,933
2511.59,877
2512.44,1135
2513.29,607
2514.14,1063
2514.99,660
2515.84,907
2516.69,850
2517.54,1121
2518.39,789
2519.24,1199
2520.08,718
2520.93,1026
2521.78,768
2522.63,1015
2523.48,862
2524.32,954
2525.17,807
2526.02,1115
2526.86,782
2527.71,950
2528.56,949
2529.4,1078
2530.25,731
2531.09,991
2531.94,925
2532.78,973
2533.63,868
2534.47,1185
2535.32,785
2536.16,1016
2537,796
2537.85,1010
2538.69,756
2539.53,824
2540.38,817
2541.22,1063
2542.06,949
2542.9,953
2543.75,607
2544.59,914
2545.43,573
2546.27,1107
2547.11,688
2547.95,1009
2548.79,855
2549.64,895
2550.48,813
2551.32,1045
2552.16,862
2553,1019
2553.84,770
2554.67,1019
2555.51,727
2556.35,1056
2557.19,833
2558.03,990
2558.87,847
2559.71,1021
2560.54,620
2561.38,968
2562.22,746
2563.06,890
2563.89,785
2564.73,1068
2565.57,743
2566.4,1168
2567.24,821
2568.07,916
2568.91,784
2569.75,1013
2570.58,764
2571.42,1125
2572.25,843
2573.09,1046
2573.92,834
2574.75,1036
2575.59,757
2576.42,1092
2577.26,788
2578.09,1010
2578.92,724
2579.76,1076
2580.59,861
2581.42,1272
2582.25,742
2583.09,1043
2583.92,751
2584.75,1151
2585.58,709
2586.41,1057
2587.24,866
2588.07,1018
2588.91,762
2589.74,1079
2590.57,834
2591.4,1072
2592.23,864
2593.06,1214
2593.89,863
2594.72,1109
2595.54,778
2596.37,1117
2597.2,918
2598.03,1061
2598.86,902
2599.69,1040
2600.52,879
2601.34,1131
2602.17,748
2603,1092
2603.82,774
2604.65,1139
2605.48,915
2606.3,1043
2607.13,856
2607.96,1144
2608.78,818
2609.61,1038
2610.43,798
2611.26,1135
2612.08,1002
2612.91,1202
2613.73,949
2614.56,1180
2615.38,1020
2616.21,1223
2617.03,829
2617.86,1259
2618.68,1062
2619.5,1185
2620.33,833
2621.15,1335
2621.97,874
2622.79,1217
2623.62,868
2624.44,1279
2625.26,850
2626.08,1028
2626.9,918
2627.72,1031
2628.55,844
2629.37,1157
2630.19,949
2631.01,1105
2631.83,747
2632.65,1216
2633.47,803
2634.29,1072
2635.11,809
2635.93,1369
2636.75,941
2637.57,1360
2638.39,914
2639.2,1334
2640.02,1011
2640.84,1295
2641.66,876
2642.48,1113
2643.29,902
2644.11,1171
2644.93,893
2645.75,1241
2646.56,871
2647.38,1181
2648.2,889
2649.01,0
2649.83,0
2650.65,0
2651.46,0
2652.28,0
