ENLIGHTEN Version,1.7.2
Measurement ID,20190904-111716-276404-WP-00438
Serial Number,WP-00438
Label,ibuprofen-2
Integration Time,1000
Timestamp,17:16.3
Note,
Temperature,0
CCD C0,807.1400146
CCD C1,0.117610998
CCD C2,-1.64E-05
CCD C3,2.33E-09
CCD Offset,0
CCD Gain,8
Laser Wavelength,785
Laser Enable,TRUE
Laser Power,100
Laser Temperature,0
Pixel Count,1952
,
Wavenumber,Processed
349.43,0
351.23,0
353.04,0
354.84,7690
356.64,6950
358.44,7883
360.24,7204
362.04,8130
363.84,7289
365.64,8292
367.43,7342
369.23,7964
371.02,6819
372.81,7734
374.6,6832
376.39,7520
378.18,6792
379.97,7529
381.76,6398
383.55,7358
385.33,6298
387.11,7269
388.9,6383
390.68,7174
392.46,6128
394.24,7043
396.02,6224
397.8,7083
399.58,6293
401.35,7007
403.13,6275
404.9,7319
406.68,7046
408.45,7625
410.22,7061
411.99,8335
413.76,7524
415.53,8569
417.3,7585
419.06,8960
420.83,8085
422.59,9118
424.35,8263
426.12,9058
427.88,8125
429.64,8712
431.4,7918
433.16,8471
434.91,7690
436.67,8202
438.43,7169
440.18,7706
441.93,6997
443.69,7305
445.44,6373
447.19,6793
448.94,6109
450.69,6520
452.43,5892
454.18,6331
455.92,5553
457.67,6272
459.41,5226
461.16,5630
462.9,5266
464.64,5784
466.38,5449
468.12,5976
469.85,5289
471.59,5691
473.33,5278
475.06,5766
476.8,5372
478.53,5862
480.26,5352
481.99,6023
483.72,5426
485.45,6083
487.18,5777
488.91,6293
490.63,5936
492.36,6441
494.08,6059
495.8,6414
497.53,5997
499.25,6540
500.97,5959
502.69,6518
504.41,5991
506.12,6514
507.84,5956
509.56,6215
511.27,5754
512.98,6156
514.7,5779
516.41,5924
518.12,5411
519.83,5767
521.54,5002
523.25,5326
524.95,4968
526.66,5142
528.36,4770
530.07,4959
531.77,4216
533.47,4902
535.18,4327
536.88,4648
538.58,4079
540.27,4631
541.97,4102
543.67,4648
545.36,4093
547.06,4404
548.75,3991
550.45,4538
552.14,4023
553.83,4610
555.52,4111
557.21,4394
558.9,3968
560.58,4520
562.27,4091
563.96,4428
565.64,4089
567.32,4772
569.01,4102
570.69,4842
572.37,4222
574.05,4949
575.73,4507
577.41,5037
579.08,4603
580.76,5330
582.44,4773
584.11,5502
585.78,4878
587.46,5429
589.13,4927
590.8,5302
592.47,4777
594.14,5170
595.81,4801
597.47,4967
599.14,4462
600.8,4892
602.47,4200
604.13,4806
605.79,4444
607.46,4771
609.12,4357
610.78,4967
612.44,4575
614.09,5479
615.75,4973
617.41,6096
619.06,5794
620.72,6693
622.37,6583
624.02,7399
625.67,7269
627.33,8148
628.97,7974
630.62,8871
632.27,8611
633.92,9073
635.57,8637
637.21,9135
638.86,8395
640.5,8933
642.14,7788
643.78,8101
645.42,7025
647.06,7694
648.7,6592
650.34,6759
651.98,5891
653.62,6501
655.25,5808
656.89,6147
658.52,5709
660.15,6085
661.79,5641
663.42,6024
665.05,5587
666.68,5919
668.31,5350
669.93,5601
671.56,5281
673.19,5510
674.81,4992
676.43,5129
678.06,4700
679.68,4952
681.3,4456
682.92,4831
684.54,4376
686.16,4651
687.78,4098
689.4,4702
691.01,3998
692.63,4669
694.24,4079
695.86,4558
697.47,4284
699.08,4739
700.69,4275
702.3,4536
703.91,4253
705.52,4475
707.13,4210
708.74,4520
710.34,4027
711.95,4508
713.55,4140
715.15,4296
716.76,3730
718.36,4283
719.96,3808
721.56,4437
723.16,3940
724.76,4445
726.35,3992
727.95,4493
729.55,4348
731.14,5243
732.73,4909
734.33,5617
735.92,5293
737.51,6219
739.1,6046
740.69,6665
742.28,6579
743.87,7441
745.46,7097
747.04,8142
748.63,7866
750.21,8460
751.8,8144
753.38,8220
754.96,7776
756.54,8274
758.12,7533
759.7,7998
761.28,7319
762.86,7884
764.44,7099
766.01,7568
767.59,7284
769.16,7810
770.74,7737
772.31,8596
773.88,8534
775.45,9540
777.02,9329
778.59,10558
780.16,10245
781.73,11107
783.3,10595
784.86,11504
786.43,10892
787.99,11412
789.56,10716
791.12,11299
792.68,10257
794.24,10828
795.8,9933
797.36,10092
798.92,9334
800.48,10116
802.04,9566
803.59,10267
805.15,9739
806.7,10830
808.26,10549
809.81,11743
811.36,11597
812.91,13095
814.46,12931
816.01,14403
817.56,14234
819.11,15600
820.66,15497
822.2,16960
823.75,16596
825.3,18332
826.84,17601
828.38,19012
829.93,18374
831.47,19337
833.01,18367
834.55,19654
836.09,17994
837.63,18780
839.16,17660
840.7,17870
842.24,16478
843.77,16815
845.31,15151
846.84,15450
848.37,13487
849.9,13475
851.44,12088
852.97,12103
854.5,10727
856.03,10513
857.55,9557
859.08,9596
860.61,8598
862.13,8850
863.66,7803
865.18,8310
866.7,7572
868.23,8197
869.75,7474
871.27,7915
872.79,7326
874.31,8270
875.83,7439
877.35,8363
878.86,7576
880.38,8588
881.89,7709
883.41,8661
884.92,7813
886.44,8558
887.95,7961
889.46,8176
890.97,7697
892.48,8095
893.99,7161
895.5,7712
897.01,6772
898.51,7344
900.02,6628
901.52,6905
903.03,6274
904.53,6529
906.04,5810
907.54,6223
909.04,5734
910.54,6187
912.04,5635
913.54,6063
915.04,5577
916.53,6126
918.03,5558
919.53,6434
921.02,5565
922.52,6540
924.01,5729
925.5,6438
927,6077
928.49,6489
929.98,6413
931.47,6866
932.96,6757
934.44,7461
935.93,6987
937.42,7990
938.9,7682
940.39,8717
941.87,8245
943.36,9110
944.84,8686
946.32,9610
947.8,9170
949.29,9872
950.77,9183
952.24,9826
953.72,9000
955.2,9636
956.68,8659
958.15,9189
959.63,8126
961.1,8453
962.58,7489
964.05,7553
965.52,6720
967,6976
968.47,6345
969.94,6469
971.41,5822
972.87,6306
974.34,5677
975.81,5817
977.28,5679
978.74,6062
980.21,5827
981.67,6076
983.13,5778
984.6,6510
986.06,6071
987.52,6646
988.98,6598
990.44,7558
991.9,7201
993.36,7938
994.82,8141
996.27,8770
997.73,8909
999.18,9303
1000.64,8919
1002.09,9877
1003.55,9049
1005,9398
1006.45,8946
1007.9,8567
1009.35,7999
1010.8,7909
1012.25,7252
1013.7,7230
1015.14,6516
1016.59,6685
1018.04,5981
1019.48,5923
1020.93,5473
1022.37,5739
1023.81,5354
1025.25,5617
1026.7,4951
1028.14,5342
1029.58,4794
1031.02,5157
1032.45,4474
1033.89,4968
1035.33,4459
1036.77,5000
1038.2,4504
1039.64,5136
1041.07,4615
1042.5,5191
1043.94,4582
1045.37,5292
1046.8,4656
1048.23,5201
1049.66,5022
1051.09,5576
1052.52,5144
1053.95,5891
1055.37,5439
1056.8,5990
1058.23,5437
1059.65,6162
1061.08,5623
1062.5,6551
1063.92,6026
1065.34,6656
1066.76,5892
1068.19,6618
1069.61,6357
1071.02,6910
1072.44,6464
1073.86,6821
1075.28,6335
1076.69,6944
1078.11,6328
1079.53,7098
1080.94,6460
1082.35,7009
1083.77,6560
1085.18,7066
1086.59,6984
1088,7279
1089.41,6963
1090.82,7841
1092.23,7584
1093.64,8252
1095.04,7718
1096.45,8614
1097.86,7997
1099.26,8749
1100.67,8426
1102.07,9146
1103.47,8618
1104.88,9145
1106.28,9108
1107.68,9499
1109.08,9434
1110.48,10438
1111.88,10002
1113.28,10846
1114.67,10521
1116.07,11299
1117.47,10411
1118.86,11540
1120.26,10640
1121.65,11173
1123.05,10692
1124.44,10844
1125.83,9958
1127.22,10309
1128.61,9347
1130,9585
1131.39,8561
1132.78,9159
1134.17,8392
1135.56,8667
1136.94,8090
1138.33,8392
1139.72,7755
1141.1,8395
1142.48,7807
1143.87,8281
1145.25,7696
1146.63,8250
1148.01,7767
1149.39,8716
1150.77,8063
1152.15,8858
1153.53,8390
1154.91,9359
1156.29,8945
1157.66,10081
1159.04,9952
1160.41,10869
1161.79,11042
1163.16,12336
1164.54,12284
1165.91,13878
1167.28,13617
1168.65,15161
1170.02,15273
1171.39,16571
1172.76,16646
1174.13,18220
1175.5,18815
1176.86,20661
1178.23,21208
1179.6,23587
1180.96,24114
1182.33,25869
1183.69,26199
1185.05,27883
1186.42,27597
1187.78,28714
1189.14,27729
1190.5,28294
1191.86,26621
1193.22,26694
1194.58,24883
1195.94,25103
1197.29,23513
1198.65,23417
1200.01,22137
1201.36,22142
1202.72,20824
1204.07,21329
1205.42,20299
1206.78,19815
1208.13,19347
1209.48,19480
1210.83,18445
1212.18,18172
1213.53,16940
1214.88,16981
1216.23,15664
1217.58,15942
1218.92,14747
1220.27,15235
1221.61,13889
1222.96,14289
1224.3,13305
1225.65,13306
1226.99,12838
1228.33,12853
1229.67,12287
1231.01,12454
1232.36,11743
1233.7,12018
1235.03,11583
1236.37,11790
1237.71,11319
1239.05,11496
1240.38,11230
1241.72,11767
1243.06,11274
1244.39,11749
1245.72,11648
1247.06,11985
1248.39,11785
1249.72,12045
1251.05,11939
1252.39,12325
1253.72,12101
1255.05,12865
1256.37,12300
1257.7,12453
1259.03,12027
1260.36,12961
1261.68,12289
1263.01,13038
1264.33,12486
1265.66,12871
1266.98,12186
1268.31,13069
1269.63,12588
1270.95,12969
1272.27,12778
1273.59,13589
1274.91,13034
1276.23,13836
1277.55,13478
1278.87,14049
1280.19,13993
1281.51,14530
1282.82,14240
1284.14,15417
1285.45,14609
1286.77,15336
1288.08,15250
1289.39,15603
1290.71,15259
1292.02,15623
1293.33,15225
1294.64,15993
1295.95,15014
1297.26,15651
1298.57,14966
1299.88,15618
1301.19,14943
1302.49,15353
1303.8,14751
1305.11,15080
1306.41,14957
1307.72,15260
1309.02,14741
1310.32,15320
1311.63,14734
1312.93,15371
1314.23,14409
1315.53,15337
1316.83,14825
1318.13,15401
1319.43,15122
1320.73,15373
1322.03,15333
1323.32,15716
1324.62,15448
1325.92,16052
1327.21,15620
1328.51,16209
1329.8,15853
1331.1,16501
1332.39,16245
1333.68,16600
1334.97,16190
1336.27,16826
1337.56,16264
1338.85,16755
1340.14,16489
1341.42,17240
1342.71,16860
1344,17319
1345.29,16579
1346.57,17238
1347.86,16792
1349.15,17497
1350.43,16646
1351.71,17054
1353,16256
1354.28,16769
1355.56,15738
1356.85,16740
1358.13,15878
1359.41,16012
1360.69,15615
1361.97,16192
1363.25,15745
1364.52,16250
1365.8,15930
1367.08,16214
1368.35,15304
1369.63,16305
1370.91,15419
1372.18,16090
1373.45,15082
1374.73,15681
1376,14978
1377.27,15657
1378.54,15192
1379.82,15626
1381.09,15251
1382.36,15449
1383.63,14973
1384.89,15580
1386.16,15028
1387.43,15519
1388.7,14988
1389.96,15630
1391.23,15327
1392.5,15557
1393.76,15595
1395.02,15940
1396.29,15399
1397.55,16053
1398.81,15691
1400.08,16515
1401.34,15837
1402.6,16645
1403.86,16442
1405.12,17069
1406.38,16920
1407.63,17171
1408.89,17085
1410.15,17341
1411.41,17018
1412.66,18129
1413.92,17641
1415.17,18416
1416.43,18092
1417.68,18564
1418.93,18522
1420.19,19070
1421.44,18606
1422.69,19271
1423.94,18927
1425.19,19332
1426.44,18961
1427.69,19347
1428.94,19071
1430.19,19753
1431.43,19470
1432.68,19984
1433.93,19611
1435.17,20264
1436.42,20155
1437.66,20477
1438.91,20272
1440.15,21093
1441.39,20551
1442.64,21577
1443.88,21772
1445.12,22159
1446.36,21858
1447.6,22687
1448.84,22614
1450.08,23414
1451.32,23342
1452.56,23696
1453.79,23353
1455.03,23795
1456.27,23983
1457.5,23984
1458.74,23159
1459.97,23303
1461.21,23088
1462.44,23486
1463.67,22945
1464.91,22992
1466.14,22889
1467.37,22495
1468.6,22137
1469.83,22225
1471.06,21382
1472.29,21069
1473.52,20940
1474.75,20905
1475.97,20082
1477.2,20547
1478.43,19761
1479.65,19816
1480.88,19091
1482.1,19358
1483.33,18818
1484.55,18833
1485.77,18509
1487,18603
1488.22,17909
1489.44,18196
1490.66,17600
1491.88,17826
1493.1,17470
1494.32,17538
1495.54,17069
1496.76,17024
1497.97,17176
1499.19,17594
1500.41,16902
1501.62,17590
1502.84,16603
1504.05,17207
1505.27,16760
1506.48,16933
1507.7,16630
1508.91,16926
1510.12,16139
1511.33,17008
1512.54,16406
1513.75,16736
1514.96,15823
1516.17,16753
1517.38,16082
1518.59,16717
1519.8,16091
1521.01,16496
1522.21,15807
1523.42,16377
1524.63,15749
1525.83,16213
1527.04,15384
1528.24,16009
1529.44,15395
1530.65,15823
1531.85,15552
1533.05,15887
1534.25,15377
1535.45,15741
1536.65,15314
1537.85,15457
1539.05,15096
1540.25,15239
1541.45,14734
1542.65,15280
1543.85,14613
1545.04,15056
1546.24,14614
1547.44,15052
1548.63,14608
1549.83,15061
1551.02,14302
1552.21,15126
1553.41,14275
1554.6,14630
1555.79,14105
1556.98,14844
1558.17,13991
1559.37,14541
1560.56,13888
1561.74,14401
1562.93,14057
1564.12,14658
1565.31,13622
1566.5,13945
1567.68,13705
1568.87,14412
1570.06,13508
1571.24,14174
1572.43,13594
1573.61,14365
1574.8,13794
1575.98,14231
1577.16,13853
1578.34,14245
1579.53,13653
1580.71,14091
1581.89,13766
1583.07,13920
1584.25,13476
1585.43,13827
1586.61,13851
1587.78,14108
1588.96,13601
1590.14,14527
1591.32,14119
1592.49,14262
1593.67,14230
1594.84,14631
1596.02,14905
1597.19,15227
1598.37,15028
1599.54,15911
1600.71,15987
1601.88,16165
1603.06,16202
1604.23,16867
1605.4,16674
1606.57,18099
1607.74,18152
1608.91,18501
1610.07,18571
1611.24,19548
1612.41,19148
1613.58,19842
1614.74,19760
1615.91,19978
1617.08,19428
1618.24,19496
1619.41,18588
1620.57,18378
1621.73,17629
1622.9,17629
1624.06,16344
1625.22,16143
1626.38,15053
1627.54,14897
1628.7,14619
1629.87,14351
1631.02,13397
1632.18,13410
1633.34,12781
1634.5,12991
1635.66,12212
1636.82,12308
1637.97,11779
1639.13,12004
1640.28,11497
1641.44,11704
1642.59,11324
1643.75,11560
1644.9,11024
1646.06,11370
1647.21,11086
1648.36,11321
1649.51,11201
1650.66,10972
1651.81,10947
1652.97,10775
1654.11,10777
1655.26,10987
1656.41,10608
1657.56,11036
1658.71,10602
1659.86,10776
1661,10722
1662.15,10519
1663.3,10373
1664.44,11023
1665.59,10702
1666.73,10941
1667.88,10537
1669.02,10870
1670.16,10251
1671.3,10769
1672.45,10480
1673.59,10725
1674.73,10434
1675.87,10937
1677.01,10480
1678.15,10717
1679.29,10646
1680.43,10695
1681.57,10411
1682.7,10625
1683.84,10659
1684.98,10841
1686.12,10643
1687.25,10815
1688.39,10368
1689.52,10871
1690.66,10826
1691.79,10844
1692.92,10387
1694.06,10679
1695.19,10445
1696.32,10644
1697.45,10405
1698.58,10624
1699.72,10590
1700.85,10855
1701.98,10291
1703.1,10638
1704.23,10328
1705.36,10857
1706.49,10156
1707.62,10562
1708.74,10372
1709.87,10235
1711,10422
1712.12,10644
1713.25,10177
1714.37,10331
1715.5,10196
1716.62,10625
1717.74,10406
1718.87,10222
1719.99,10141
1721.11,10481
1722.23,10055
1723.35,10282
1724.47,10241
1725.59,10129
1726.71,9975
1727.83,10264
1728.95,10221
1730.07,9925
1731.19,9767
1732.3,10292
1733.42,9870
1734.54,10011
1735.65,9836
1736.77,10046
1737.88,9670
1739,10500
1740.11,9946
1741.23,9962
1742.34,9738
1743.45,10034
1744.56,9521
1745.68,9920
1746.79,9462
1747.9,9776
1749.01,9660
1750.12,9810
1751.23,9338
1752.34,9724
1753.45,9604
1754.55,9588
1755.66,9509
1756.77,9411
1757.88,9175
1758.98,9707
1760.09,9206
1761.19,9627
1762.3,9481
1763.4,9710
1764.51,8982
1765.61,9434
1766.71,9034
1767.82,9245
1768.92,8950
1770.02,9471
1771.12,9019
1772.22,9257
1773.32,9026
1774.42,9116
1775.52,8750
1776.62,9231
1777.72,8724
1778.82,9280
1779.92,8693
1781.01,8944
1782.11,8392
1783.21,8764
1784.3,8466
1785.4,8808
1786.5,8169
1787.59,8573
1788.68,8249
1789.78,8640
1790.87,8226
1791.96,8549
1793.06,8287
1794.15,8444
1795.24,8352
1796.33,8422
1797.42,7869
1798.51,8256
1799.6,7780
1800.69,8202
1801.78,7801
1802.87,7964
1803.96,7717
1805.05,7975
1806.13,7720
1807.22,7917
1808.31,7528
1809.39,7775
1810.48,7612
1811.56,8004
1812.65,7276
1813.73,7637
1814.82,7212
1815.9,7271
1816.98,7220
1818.07,7709
1819.15,7175
1820.23,7492
1821.31,7069
1822.39,7366
1823.47,7056
1824.55,7277
1825.63,6746
1826.71,7244
1827.79,6626
1828.87,7070
1829.95,6814
1831.02,6894
1832.1,6679
1833.18,6763
1834.25,6544
1835.33,6594
1836.4,6452
1837.48,6629
1838.55,6249
1839.63,6610
1840.7,6288
1841.77,6454
1842.85,6088
1843.92,6436
1844.99,6091
1846.06,6339
1847.13,6161
1848.2,6005
1849.28,5908
1850.34,6232
1851.41,5862
1852.48,5982
1853.55,5847
1854.62,6079
1855.69,5846
1856.76,5811
1857.82,5570
1858.89,5878
1859.95,5582
1861.02,5683
1862.09,5420
1863.15,5633
1864.21,5558
1865.28,5708
1866.34,5546
1867.41,5578
1868.47,5328
1869.53,5463
1870.59,5390
1871.65,5389
1872.71,5338
1873.78,5480
1874.84,5266
1875.9,5563
1876.96,5022
1878.01,5265
1879.07,5096
1880.13,5373
1881.19,5069
1882.25,5333
1883.3,4943
1884.36,5260
1885.42,5095
1886.47,5165
1887.53,4898
1888.58,5305
1889.64,4922
1890.69,4939
1891.74,4824
1892.8,5138
1893.85,4921
1894.9,5045
1895.96,4815
1897.01,4883
1898.06,4734
1899.11,5063
1900.16,4937
1901.21,4829
1902.26,4639
1903.31,5088
1904.36,4774
1905.41,4783
1906.45,4466
1907.5,4912
1908.55,4802
1909.6,4579
1910.64,4593
1911.69,4923
1912.73,4547
1913.78,4704
1914.82,4502
1915.87,4903
1916.91,4514
1917.96,4664
1919,4586
1920.04,4634
1921.08,4669
1922.13,4995
1923.17,4520
1924.21,4607
1925.25,4284
1926.29,4824
1927.33,4285
1928.37,4608
1929.41,4421
1930.45,4645
1931.49,4579
1932.53,4774
1933.56,4307
1934.6,4755
1935.64,4344
1936.67,4622
1937.71,4420
1938.75,4537
1939.78,4106
1940.82,4475
1941.85,4499
1942.89,4533
1943.92,4515
1944.95,4541
1945.99,4243
1947.02,4399
1948.05,4276
1949.08,4413
1950.11,4148
1951.15,4590
1952.18,4119
1953.21,4478
1954.24,4243
1955.27,4315
1956.3,4118
1957.32,4316
1958.35,4022
1959.38,4491
1960.41,4062
1961.44,4227
1962.46,3985
1963.49,4193
1964.51,3987
1965.54,4188
1966.57,4003
1967.59,4064
1968.62,3983
1969.64,4305
1970.66,4176
1971.69,4067
1972.71,3814
1973.73,4028
1974.75,3860
1975.78,4135
1976.8,3635
1977.82,4040
1978.84,3654
1979.86,3971
1980.88,3708
1981.9,3813
1982.92,3689
1983.94,3893
1984.96,3781
1985.98,3851
1986.99,3738
1988.01,3893
1989.03,3458
1990.04,3943
1991.06,3606
1992.08,3608
1993.09,3412
1994.11,3959
1995.12,3546
1996.14,3834
1997.15,3268
1998.16,3588
1999.18,3465
2000.19,3675
2001.2,3383
2002.21,3647
2003.23,3324
2004.24,3859
2005.25,3372
2006.26,3647
2007.27,3306
2008.28,3511
2009.29,3335
2010.3,3539
2011.31,3218
2012.32,3473
2013.32,3180
2014.33,3488
2015.34,3129
2016.35,3397
2017.35,3268
2018.36,3312
2019.36,3081
2020.37,3457
2021.38,3177
2022.38,3296
2023.38,3125
2024.39,3350
2025.39,3157
2026.4,3274
2027.4,3030
2028.4,3388
2029.4,2872
2030.41,3077
2031.41,2944
2032.41,3141
2033.41,2756
2034.41,2962
2035.41,2845
2036.41,3042
2037.41,2783
2038.41,3083
2039.41,2832
2040.4,2900
2041.4,2745
2042.4,2996
2043.4,2670
2044.39,2888
2045.39,2603
2046.39,2900
2047.38,2596
2048.38,2692
2049.37,2515
2050.37,2893
2051.36,2482
2052.36,2702
2053.35,2527
2054.34,2714
2055.34,2511
2056.33,2534
2057.32,2314
2058.31,2629
2059.3,2296
2060.3,2571
2061.29,2391
2062.28,2418
2063.27,2181
2064.26,2359
2065.25,2138
2066.23,2274
2067.22,2178
2068.21,2199
2069.2,2116
2070.19,2350
2071.17,2133
2072.16,2270
2073.15,2097
2074.13,2178
2075.12,1966
2076.11,2292
2077.09,1981
2078.08,2116
2079.06,1915
2080.04,1970
2081.03,1840
2082.01,2152
2083,1914
2083.98,2048
2084.96,1782
2085.94,1861
2086.92,1707
2087.91,1920
2088.89,1766
2089.87,1853
2090.85,1678
2091.83,1846
2092.81,1636
2093.79,1796
2094.77,1683
2095.74,1723
2096.72,1592
2097.7,1629
2098.68,1691
2099.66,1686
2100.63,1473
2101.61,1619
2102.59,1577
2103.56,1535
2104.54,1468
2105.51,1615
2106.49,1422
2107.46,1578
2108.44,1382
2109.41,1429
2110.38,1360
2111.36,1515
2112.33,1411
2113.3,1511
2114.27,1319
2115.25,1533
2116.22,1237
2117.19,1424
2118.16,1270
2119.13,1477
2120.1,1270
2121.07,1291
2122.04,1247
2123.01,1408
2123.98,1200
2124.95,1387
2125.91,1237
2126.88,1295
2127.85,1165
2128.82,1302
2129.78,1237
2130.75,1327
2131.72,1105
2132.68,1183
2133.65,1050
2134.61,1289
2135.58,1046
2136.54,1132
2137.51,1172
2138.47,1236
2139.43,1140
2140.4,1226
2141.36,1119
2142.32,1256
2143.29,1044
2144.25,1181
2145.21,977
2146.17,1250
2147.13,1034
2148.09,1207
2149.05,946
2150.01,1221
2150.97,1042
2151.93,1094
2152.89,962
2153.85,1161
2154.81,913
2155.76,1142
2156.72,983
2157.68,1132
2158.64,1025
2159.59,1127
2160.55,1034
2161.51,1109
2162.46,964
2163.42,1124
2164.37,933
2165.33,1011
2166.28,986
2167.24,1196
2168.19,979
2169.14,1125
2170.1,977
2171.05,1151
2172,893
2172.95,988
2173.91,887
2174.86,1089
2175.81,907
2176.76,1103
2177.71,912
2178.66,1104
2179.61,951
2180.56,1056
2181.51,953
2182.46,1120
2183.41,957
2184.36,1174
2185.3,922
2186.25,1112
2187.2,1019
2188.15,1149
2189.09,995
2190.04,1065
2190.99,931
2191.93,1081
2192.88,894
2193.82,1178
2194.77,963
2195.71,1082
2196.66,956
2197.6,1124
2198.54,935
2199.49,1027
2200.43,920
2201.37,1147
2202.32,931
2203.26,1112
2204.2,889
2205.14,1080
2206.08,929
2207.02,1085
2207.96,891
2208.9,1166
2209.84,992
2210.78,1200
2211.72,954
2212.66,1228
2213.6,956
2214.54,1111
2215.48,995
2216.42,1112
2217.35,863
2218.29,1148
2219.23,928
2220.16,1259
2221.1,1006
2222.04,1187
2222.97,1103
2223.91,1058
2224.84,1011
2225.78,1165
2226.71,973
2227.65,1116
2228.58,988
2229.51,1162
2230.45,1052
2231.38,1254
2232.31,917
2233.24,1187
2234.18,1104
2235.11,1178
2236.04,969
2236.97,1245
2237.9,1104
2238.83,1188
2239.76,943
2240.69,1233
2241.62,987
2242.55,1135
2243.48,896
2244.41,1199
2245.34,995
2246.27,1264
2247.19,1058
2248.12,1127
2249.05,1052
2249.98,1269
2250.9,1074
2251.83,1164
2252.75,899
2253.68,1282
2254.61,916
2255.53,1302
2256.46,1064
2257.38,1218
2258.31,1113
2259.23,1307
2260.15,1100
2261.08,1202
2262,953
2262.92,1203
2263.85,1013
2264.77,1282
2265.69,983
2266.61,1149
2267.53,1075
2268.45,1159
2269.37,1119
2270.3,1162
2271.22,1085
2272.14,1136
2273.05,950
2273.97,1215
2274.89,1062
2275.81,1171
2276.73,1015
2277.65,1132
2278.57,1064
2279.48,1300
2280.4,1048
2281.32,1204
2282.24,923
2283.15,1320
2284.07,1000
2284.98,1093
2285.9,1105
2286.82,1152
2287.73,989
2288.65,1170
2289.56,1011
2290.47,1152
2291.39,974
2292.3,1122
2293.21,971
2294.13,1134
2295.04,991
2295.95,1184
2296.87,863
2297.78,1185
2298.69,1042
2299.6,1125
2300.51,1000
2301.42,1123
2302.33,863
2303.24,1093
2304.15,916
2305.06,1198
2305.97,741
2306.88,1077
2307.79,924
2308.7,1086
2309.61,939
2310.51,1087
2311.42,840
2312.33,1065
2313.24,1018
2314.14,1071
2315.05,908
2315.96,962
2316.86,846
2317.77,1020
2318.67,826
2319.58,1070
2320.48,858
2321.39,964
2322.29,821
2323.2,1064
2324.1,834
2325,1000
2325.91,751
2326.81,944
2327.71,827
2328.62,1000
2329.52,830
2330.42,1015
2331.32,753
2332.22,1035
2333.12,715
2334.03,892
2334.93,773
2335.83,1047
2336.73,731
2337.63,908
2338.53,821
2339.42,930
2340.32,715
2341.22,850
2342.12,814
2343.02,856
2343.92,711
2344.81,906
2345.71,666
2346.61,859
2347.51,773
2348.4,910
2349.3,703
2350.19,805
2351.09,756
2351.98,969
2352.88,691
2353.77,933
2354.67,789
2355.56,834
2356.46,692
2357.35,818
2358.25,738
2359.14,908
2360.03,708
2360.92,838
2361.82,705
2362.71,856
2363.6,733
2364.49,890
2365.38,723
2366.28,869
2367.17,761
2368.06,849
2368.95,709
2369.84,749
2370.73,637
2371.62,833
2372.51,686
2373.4,906
2374.28,654
2375.17,860
2376.06,768
2376.95,794
2377.84,653
2378.72,865
2379.61,631
2380.5,872
2381.39,708
2382.27,849
2383.16,629
2384.04,915
2384.93,743
2385.81,899
2386.7,626
2387.59,807
2388.47,670
2389.35,861
2390.24,716
2391.12,865
2392.01,662
2392.89,906
2393.77,643
2394.66,902
2395.54,572
2396.42,892
2397.3,774
2398.18,916
2399.07,734
2399.95,841
2400.83,740
2401.71,879
2402.59,675
2403.47,904
2404.35,773
2405.23,870
2406.11,720
2406.99,963
2407.87,750
2408.75,912
2409.62,612
2410.5,780
2411.38,725
2412.26,840
2413.14,733
2414.01,903
2414.89,719
2415.77,898
2416.64,708
2417.52,834
2418.4,802
2419.27,987
2420.15,648
2421.02,968
2421.9,723
2422.77,885
2423.65,783
2424.52,953
2425.4,772
2426.27,1027
2427.14,787
2428.02,952
2428.89,740
2429.76,1012
2430.64,791
2431.51,1008
2432.38,743
2433.25,898
2434.12,761
2434.99,971
2435.87,779
2436.74,991
2437.61,720
2438.48,912
2439.35,746
2440.22,1045
2441.09,666
2441.96,1044
2442.83,864
2443.69,896
2444.56,748
2445.43,989
2446.3,782
2447.17,998
2448.04,738
2448.9,1051
2449.77,748
2450.64,894
2451.5,809
2452.37,928
2453.24,848
2454.1,994
2454.97,771
2455.83,974
2456.7,700
2457.56,962
2458.43,761
2459.29,984
2460.16,803
2461.02,985
2461.89,746
2462.75,969
2463.61,865
2464.48,1036
2465.34,748
2466.2,890
2467.06,784
2467.93,949
2468.79,783
2469.65,1046
2470.51,848
2471.37,1070
2472.23,780
2473.1,955
2473.96,800
2474.82,1044
2475.68,766
2476.54,966
2477.4,826
2478.26,1056
2479.11,771
2479.97,946
2480.83,747
2481.69,1062
2482.55,724
2483.41,1021
2484.26,800
2485.12,1001
2485.98,807
2486.84,965
2487.69,808
2488.55,1027
2489.41,742
2490.26,1083
2491.12,872
2491.97,953
2492.83,865
2493.68,928
2494.54,788
2495.39,1014
2496.25,752
2497.1,1140
2497.96,809
2498.81,959
2499.67,826
2500.52,949
2501.37,799
2502.22,976
2503.08,823
2503.93,1102
2504.78,827
2505.63,879
2506.49,863
2507.34,940
2508.19,681
2509.04,934
2509.89,742
2510.74,899
2511.59,791
2512.44,902
2513.29,717
2514.14,984
2514.99,759
2515.84,1050
2516.69,807
2517.54,982
2518.39,724
2519.24,929
2520.08,662
2520.93,1068
2521.78,700
2522.63,978
2523.48,773
2524.32,913
2525.17,712
2526.02,865
2526.86,680
2527.71,970
2528.56,689
2529.4,842
2530.25,789
2531.09,948
2531.94,674
2532.78,866
2533.63,766
2534.47,994
2535.32,737
2536.16,864
2537,785
2537.85,841
2538.69,710
2539.53,957
2540.38,628
2541.22,1004
2542.06,735
2542.9,943
2543.75,698
2544.59,845
2545.43,724
2546.27,851
2547.11,771
2547.95,871
2548.79,642
2549.64,907
2550.48,619
2551.32,803
2552.16,657
2553,985
2553.84,705
2554.67,921
2555.51,720
2556.35,794
2557.19,687
2558.03,863
2558.87,672
2559.71,946
2560.54,712
2561.38,840
2562.22,675
2563.06,847
2563.89,594
2564.73,863
2565.57,677
2566.4,911
2567.24,788
2568.07,840
2568.91,580
2569.75,891
2570.58,699
2571.42,917
2572.25,659
2573.09,914
2573.92,712
2574.75,856
2575.59,639
2576.42,922
2577.26,677
2578.09,876
2578.92,741
2579.76,862
2580.59,639
2581.42,957
2582.25,553
2583.09,852
2583.92,672
2584.75,916
2585.58,599
2586.41,803
2587.24,607
2588.07,828
2588.91,601
2589.74,818
2590.57,733
2591.4,874
2592.23,658
2593.06,819
2593.89,597
2594.72,923
2595.54,645
2596.37,841
2597.2,576
2598.03,926
2598.86,602
2599.69,798
2600.52,646
2601.34,849
2602.17,691
2603,745
2603.82,633
2604.65,774
2605.48,665
2606.3,826
2607.13,532
2607.96,857
2608.78,583
2609.61,873
2610.43,607
2611.26,919
2612.08,572
2612.91,938
2613.73,680
2614.56,854
2615.38,558
2616.21,890
2617.03,598
2617.86,896
2618.68,645
2619.5,889
2620.33,666
2621.15,801
2621.97,576
2622.79,775
2623.62,608
2624.44,780
2625.26,609
2626.08,854
2626.9,628
2627.72,995
2628.55,593
2629.37,871
2630.19,701
2631.01,924
2631.83,621
2632.65,863
2633.47,584
2634.29,835
2635.11,598
2635.93,876
2636.75,597
2637.57,802
2638.39,648
2639.2,833
2640.02,621
2640.84,890
2641.66,568
2642.48,933
2643.29,636
2644.11,825
2644.93,724
2645.75,939
2646.56,516
2647.38,829
2648.2,662
2649.01,0
2649.83,0
2650.65,0
2651.46,0
2652.28,0
