ENLIGHTEN Version,1.7.2
Measurement ID,20190716-220757-898920-WP-00438
Serial Number,WP-00438
Label,isopropanol
Integration Time,1000
Timestamp,2019-07-16 22:07:57.898920
Note,
Temperature,-99
CCD C0,807.1400146484375
CCD C1,0.11761099845170975
CCD C2,-1.6414700439781882e-05
CCD C3,2.3293600381890656e-09
CCD Offset,0
CCD Gain,8.0
Laser Wavelength,785.0
Laser Enable,True
Laser Power,100.0
Laser Temperature,-99
Pixel Count,1952

Wavenumber,Processed
349.43,0.00
351.23,0.00
353.04,0.00
354.84,417.00
356.64,442.00
358.44,437.00
360.24,499.00
362.04,675.00
363.84,616.00
365.64,843.00
367.43,689.00
369.23,786.00
371.02,1120.00
372.81,966.00
374.60,1130.00
376.39,1401.00
378.18,1140.00
379.97,1142.00
381.76,1262.00
383.55,1234.00
385.33,1134.00
387.11,979.00
388.90,1156.00
390.68,973.00
392.46,1038.00
394.24,811.00
396.02,1020.00
397.80,890.00
399.58,718.00
401.35,876.00
403.13,703.00
404.90,820.00
406.68,812.00
408.45,1079.00
410.22,599.00
411.99,795.00
413.76,766.00
415.53,1131.00
417.30,1238.00
419.06,1090.00
420.83,1263.00
422.59,1440.00
424.35,1047.00
426.12,1396.00
427.88,1244.00
429.64,1816.00
431.40,1729.00
433.16,1779.00
434.91,1883.00
436.67,1990.00
438.43,1472.00
440.18,1769.00
441.93,1866.00
443.69,1740.00
445.44,1645.00
447.19,1710.00
448.94,1544.00
450.69,1484.00
452.43,1486.00
454.18,1346.00
455.92,1428.00
457.67,1277.00
459.41,1292.00
461.16,1094.00
462.90,1230.00
464.64,954.00
466.38,1120.00
468.12,910.00
469.85,1046.00
471.59,1015.00
473.33,944.00
475.06,1132.00
476.80,1106.00
478.53,1334.00
480.26,1163.00
481.99,1507.00
483.72,1675.00
485.45,1863.00
487.18,1796.00
488.91,1941.00
490.63,2200.00
492.36,1931.00
494.08,2075.00
495.80,2041.00
497.53,1772.00
499.25,1854.00
500.97,1616.00
502.69,1622.00
504.41,1572.00
506.12,1523.00
507.84,1213.00
509.56,1267.00
511.27,811.00
512.98,856.00
514.70,691.00
516.41,726.00
518.12,667.00
519.83,667.00
521.54,452.00
523.25,526.00
524.95,322.00
526.66,433.00
528.36,562.00
530.07,430.00
531.77,571.00
533.47,392.00
535.18,550.00
536.88,387.00
538.58,407.00
540.27,449.00
541.97,426.00
543.67,442.00
545.36,345.00
547.06,368.00
548.75,373.00
550.45,207.00
552.14,356.00
553.83,195.00
555.52,264.00
557.21,214.00
558.90,440.00
560.58,334.00
562.27,360.00
563.96,309.00
565.64,275.00
567.32,269.00
569.01,247.00
570.69,227.00
572.37,347.00
574.05,276.00
575.73,277.00
577.41,192.00
579.08,352.00
580.76,364.00
582.44,444.00
584.11,330.00
585.78,204.00
587.46,366.00
589.13,425.00
590.80,192.00
592.47,338.00
594.14,222.00
595.81,363.00
597.47,429.00
599.14,207.00
600.80,195.00
602.47,304.00
604.13,434.00
605.79,286.00
607.46,200.00
609.12,378.00
610.78,160.00
612.44,368.00
614.09,279.00
615.75,373.00
617.41,476.00
619.06,349.00
620.72,309.00
622.37,452.00
624.02,339.00
625.67,292.00
627.33,92.00
628.97,213.00
630.62,178.00
632.27,255.00
633.92,155.00
635.57,214.00
637.21,257.00
638.86,352.00
640.50,103.00
642.14,347.00
643.78,162.00
645.42,239.00
647.06,353.00
648.70,400.00
650.34,285.00
651.98,300.00
653.62,428.00
655.25,238.00
656.89,357.00
658.52,196.00
660.15,201.00
661.79,302.00
663.42,164.00
665.05,379.00
666.68,225.00
668.31,250.00
669.93,314.00
671.56,285.00
673.19,335.00
674.81,157.00
676.43,152.00
678.06,400.00
679.68,168.00
681.30,275.00
682.92,261.00
684.54,408.00
686.16,254.00
687.78,193.00
689.40,217.00
691.01,304.00
692.63,345.00
694.24,297.00
695.86,342.00
697.47,399.00
699.08,268.00
700.69,157.00
702.30,260.00
703.91,332.00
705.52,406.00
707.13,328.00
708.74,312.00
710.34,152.00
711.95,256.00
713.55,256.00
715.15,353.00
716.76,390.00
718.36,324.00
719.96,334.00
721.56,267.00
723.16,428.00
724.76,294.00
726.35,382.00
727.95,209.00
729.55,344.00
731.14,195.00
732.73,468.00
734.33,184.00
735.92,377.00
737.51,279.00
739.10,263.00
740.69,390.00
742.28,371.00
743.87,224.00
745.46,430.00
747.04,330.00
748.63,380.00
750.21,428.00
751.80,360.00
753.38,324.00
754.96,437.00
756.54,359.00
758.12,333.00
759.70,421.00
761.28,309.00
762.86,360.00
764.44,382.00
766.01,478.00
767.59,466.00
769.16,470.00
770.74,499.00
772.31,562.00
773.88,689.00
775.45,545.00
777.02,662.00
778.59,631.00
780.16,662.00
781.73,736.00
783.30,735.00
784.86,802.00
786.43,972.00
787.99,904.00
789.56,1125.00
791.12,1303.00
792.68,1274.00
794.24,1765.00
795.80,2062.00
797.36,2309.00
798.92,2771.00
800.48,3332.00
802.04,3860.00
803.59,4925.00
805.15,5864.00
806.70,7558.00
808.26,9207.00
809.81,11806.00
811.36,13280.00
812.91,16597.00
814.46,18157.00
816.01,20371.00
817.56,20784.00
819.11,22406.00
820.66,21221.00
822.20,21713.00
823.75,19335.00
825.30,18766.00
826.84,16400.00
828.38,14918.00
829.93,12180.00
831.47,11043.00
833.01,8399.00
834.55,6891.00
836.09,5146.00
837.63,4100.00
839.16,3064.00
840.70,2664.00
842.24,2099.00
843.77,1942.00
845.31,1618.00
846.84,1402.00
848.37,1323.00
849.90,1068.00
851.44,1005.00
852.97,989.00
854.50,969.00
856.03,927.00
857.55,727.00
859.08,833.00
860.61,913.00
862.13,629.00
863.66,781.00
865.18,590.00
866.70,720.00
868.23,728.00
869.75,504.00
871.27,673.00
872.79,641.00
874.31,687.00
875.83,749.00
877.35,599.00
878.86,702.00
880.38,433.00
881.89,619.00
883.41,704.00
884.92,587.00
886.44,687.00
887.95,758.00
889.46,792.00
890.97,577.00
892.48,611.00
893.99,722.00
895.50,764.00
897.01,710.00
898.51,684.00
900.02,857.00
901.52,917.00
903.03,861.00
904.53,874.00
906.04,984.00
907.54,727.00
909.04,1108.00
910.54,1107.00
912.04,1164.00
913.54,1465.00
915.04,1143.00
916.53,1591.00
918.03,1547.00
919.53,1771.00
921.02,1917.00
922.52,2105.00
924.01,2148.00
925.50,2431.00
927.00,2513.00
928.49,2878.00
929.98,2917.00
931.47,3327.00
932.96,3323.00
934.44,3682.00
935.93,3588.00
937.42,4046.00
938.90,4181.00
940.39,4402.00
941.87,4552.00
943.36,4757.00
944.84,4834.00
946.32,5202.00
947.80,5100.00
949.29,5665.00
950.77,5326.00
952.24,5401.00
953.72,5423.00
955.20,5169.00
956.68,5146.00
958.15,4754.00
959.63,4358.00
961.10,4039.00
962.58,3642.00
964.05,3193.00
965.52,2846.00
967.00,2690.00
968.47,2175.00
969.94,2060.00
971.41,1659.00
972.87,1355.00
974.34,1347.00
975.81,1116.00
977.28,1049.00
978.74,989.00
980.21,913.00
981.67,1000.00
983.13,689.00
984.60,959.00
986.06,681.00
987.52,697.00
988.98,663.00
990.44,665.00
991.90,594.00
993.36,721.00
994.82,586.00
996.27,595.00
997.73,507.00
999.18,417.00
1000.64,421.00
1002.09,460.00
1003.55,419.00
1005.00,529.00
1006.45,419.00
1007.90,543.00
1009.35,486.00
1010.80,498.00
1012.25,408.00
1013.70,465.00
1015.14,356.00
1016.59,418.00
1018.04,310.00
1019.48,383.00
1020.93,366.00
1022.37,408.00
1023.81,261.00
1025.25,334.00
1026.70,416.00
1028.14,388.00
1029.58,298.00
1031.02,447.00
1032.45,227.00
1033.89,459.00
1035.33,364.00
1036.77,431.00
1038.20,178.00
1039.64,401.00
1041.07,473.00
1042.50,356.00
1043.94,501.00
1045.37,497.00
1046.80,262.00
1048.23,515.00
1049.66,469.00
1051.09,558.00
1052.52,400.00
1053.95,371.00
1055.37,550.00
1056.80,272.00
1058.23,214.00
1059.65,520.00
1061.08,250.00
1062.50,538.00
1063.92,636.00
1065.34,415.00
1066.76,707.00
1068.19,533.00
1069.61,669.00
1071.02,657.00
1072.44,657.00
1073.86,750.00
1075.28,733.00
1076.69,809.00
1078.11,723.00
1079.53,813.00
1080.94,737.00
1082.35,834.00
1083.77,848.00
1085.18,936.00
1086.59,1061.00
1088.00,1142.00
1089.41,1329.00
1090.82,1316.00
1092.23,1466.00
1093.64,1385.00
1095.04,1457.00
1096.45,1603.00
1097.86,1896.00
1099.26,1899.00
1100.67,1982.00
1102.07,2167.00
1103.47,2333.00
1104.88,2569.00
1106.28,2792.00
1107.68,3039.00
1109.08,2966.00
1110.48,3190.00
1111.88,3080.00
1113.28,3478.00
1114.67,3680.00
1116.07,3526.00
1117.47,3619.00
1118.86,3687.00
1120.26,3454.00
1121.65,3883.00
1123.05,3779.00
1124.44,3951.00
1125.83,3858.00
1127.22,4381.00
1128.61,4192.00
1130.00,4412.00
1131.39,4204.00
1132.78,4599.00
1134.17,4562.00
1135.56,4318.00
1136.94,4310.00
1138.33,4217.00
1139.72,3987.00
1141.10,3897.00
1142.48,3600.00
1143.87,3483.00
1145.25,3194.00
1146.63,3161.00
1148.01,2759.00
1149.39,3000.00
1150.77,2794.00
1152.15,2655.00
1153.53,2666.00
1154.91,2717.00
1156.29,2670.00
1157.66,2685.00
1159.04,2713.00
1160.41,2881.00
1161.79,2764.00
1163.16,2821.00
1164.54,2839.00
1165.91,3071.00
1167.28,2823.00
1168.65,2852.00
1170.02,2673.00
1171.39,2405.00
1172.76,2402.00
1174.13,2352.00
1175.50,2226.00
1176.86,1797.00
1178.23,1880.00
1179.60,1830.00
1180.96,1618.00
1182.33,1586.00
1183.69,1505.00
1185.05,1280.00
1186.42,1299.00
1187.78,1286.00
1189.14,1176.00
1190.50,1223.00
1191.86,967.00
1193.22,1080.00
1194.58,964.00
1195.94,1068.00
1197.29,978.00
1198.65,923.00
1200.01,872.00
1201.36,994.00
1202.72,990.00
1204.07,842.00
1205.42,927.00
1206.78,898.00
1208.13,726.00
1209.48,903.00
1210.83,828.00
1212.18,719.00
1213.53,785.00
1214.88,883.00
1216.23,800.00
1217.58,869.00
1218.92,1028.00
1220.27,833.00
1221.61,787.00
1222.96,812.00
1224.30,727.00
1225.65,756.00
1226.99,884.00
1228.33,684.00
1229.67,736.00
1231.01,810.00
1232.36,755.00
1233.70,638.00
1235.03,874.00
1236.37,586.00
1237.71,733.00
1239.05,878.00
1240.38,757.00
1241.72,870.00
1243.06,815.00
1244.39,695.00
1245.72,1082.00
1247.06,791.00
1248.39,696.00
1249.72,715.00
1251.05,636.00
1252.39,882.00
1253.72,771.00
1255.05,807.00
1256.37,635.00
1257.70,938.00
1259.03,799.00
1260.36,980.00
1261.68,740.00
1263.01,837.00
1264.33,767.00
1265.66,768.00
1266.98,838.00
1268.31,1001.00
1269.63,990.00
1270.95,989.00
1272.27,1010.00
1273.59,922.00
1274.91,1068.00
1276.23,919.00
1277.55,930.00
1278.87,1291.00
1280.19,932.00
1281.51,1083.00
1282.82,1120.00
1284.14,1349.00
1285.45,1230.00
1286.77,1262.00
1288.08,1366.00
1289.39,1119.00
1290.71,1358.00
1292.02,1400.00
1293.33,1394.00
1294.64,1444.00
1295.95,1587.00
1297.26,1375.00
1298.57,1708.00
1299.88,1741.00
1301.19,1715.00
1302.49,1689.00
1303.80,1653.00
1305.11,1704.00
1306.41,1774.00
1307.72,1810.00
1309.02,1854.00
1310.32,1809.00
1311.63,1913.00
1312.93,1979.00
1314.23,1828.00
1315.53,2242.00
1316.83,1868.00
1318.13,1932.00
1319.43,1946.00
1320.73,1986.00
1322.03,1960.00
1323.32,1895.00
1324.62,2135.00
1325.92,2178.00
1327.21,2099.00
1328.51,2148.00
1329.80,2221.00
1331.10,2409.00
1332.39,2252.00
1333.68,2236.00
1334.97,2370.00
1336.27,2626.00
1337.56,2680.00
1338.85,2827.00
1340.14,2461.00
1341.42,2633.00
1342.71,2638.00
1344.00,3088.00
1345.29,2941.00
1346.57,2730.00
1347.86,2665.00
1349.15,2903.00
1350.43,2672.00
1351.71,2516.00
1353.00,2353.00
1354.28,2752.00
1355.56,2409.00
1356.85,2414.00
1358.13,2555.00
1359.41,2251.00
1360.69,2093.00
1361.97,2346.00
1363.25,1933.00
1364.52,2109.00
1365.80,2182.00
1367.08,2302.00
1368.35,1954.00
1369.63,2103.00
1370.91,2147.00
1372.18,1911.00
1373.45,2199.00
1374.73,1959.00
1376.00,2229.00
1377.27,2016.00
1378.54,1884.00
1379.82,1951.00
1381.09,2130.00
1382.36,2165.00
1383.63,2068.00
1384.89,2244.00
1386.16,2312.00
1387.43,2488.00
1388.70,2256.00
1389.96,2469.00
1391.23,2352.00
1392.50,2158.00
1393.76,2489.00
1395.02,2601.00
1396.29,2707.00
1397.55,2397.00
1398.81,2786.00
1400.08,2744.00
1401.34,2677.00
1402.60,2838.00
1403.86,3067.00
1405.12,2940.00
1406.38,2840.00
1407.63,3073.00
1408.89,2996.00
1410.15,3062.00
1411.41,2907.00
1412.66,3251.00
1413.92,3390.00
1415.17,3243.00
1416.43,3184.00
1417.68,3252.00
1418.93,3593.00
1420.19,3339.00
1421.44,3421.00
1422.69,3194.00
1423.94,3606.00
1425.19,3604.00
1426.44,3664.00
1427.69,3699.00
1428.94,3764.00
1430.19,3690.00
1431.43,3901.00
1432.68,4131.00
1433.93,4099.00
1435.17,4323.00
1436.42,4578.00
1437.66,4612.00
1438.91,4806.00
1440.15,4774.00
1441.39,5370.00
1442.64,5291.00
1443.88,6001.00
1445.12,6153.00
1446.36,6435.00
1447.60,6984.00
1448.84,7322.00
1450.08,7373.00
1451.32,7977.00
1452.56,8103.00
1453.79,7981.00
1455.03,8524.00
1456.27,8395.00
1457.50,8426.00
1458.74,8920.00
1459.97,8557.00
1461.21,8260.00
1462.44,8055.00
1463.67,7688.00
1464.91,7228.00
1466.14,7099.00
1467.37,6927.00
1468.60,6390.00
1469.83,6059.00
1471.06,5759.00
1472.29,5451.00
1473.52,5329.00
1474.75,4732.00
1475.97,4663.00
1477.20,4008.00
1478.43,3752.00
1479.65,3732.00
1480.88,3553.00
1482.10,3372.00
1483.33,3145.00
1484.55,2860.00
1485.77,2779.00
1487.00,2936.00
1488.22,2553.00
1489.44,2414.00
1490.66,2455.00
1491.88,2292.00
1493.10,1997.00
1494.32,2180.00
1495.54,1846.00
1496.76,1979.00
1497.97,1693.00
1499.19,1871.00
1500.41,1662.00
1501.62,1769.00
1502.84,1738.00
1504.05,1447.00
1505.27,1603.00
1506.48,1761.00
1507.70,1538.00
1508.91,1510.00
1510.12,1351.00
1511.33,1464.00
1512.54,1449.00
1513.75,1223.00
1514.96,1332.00
1516.17,1385.00
1517.38,1303.00
1518.59,1213.00
1519.80,1209.00
1521.01,1223.00
1522.21,1167.00
1523.42,1041.00
1524.63,1021.00
1525.83,1256.00
1527.04,1005.00
1528.24,1168.00
1529.44,1282.00
1530.65,1167.00
1531.85,1148.00
1533.05,903.00
1534.25,1080.00
1535.45,1222.00
1536.65,1124.00
1537.85,1193.00
1539.05,940.00
1540.25,793.00
1541.45,913.00
1542.65,1051.00
1543.85,893.00
1545.04,868.00
1546.24,967.00
1547.44,779.00
1548.63,914.00
1549.83,854.00
1551.02,837.00
1552.21,812.00
1553.41,1050.00
1554.60,655.00
1555.79,979.00
1556.98,914.00
1558.17,723.00
1559.37,667.00
1560.56,973.00
1561.74,760.00
1562.93,826.00
1564.12,847.00
1565.31,529.00
1566.50,885.00
1567.68,754.00
1568.87,871.00
1570.06,638.00
1571.24,854.00
1572.43,631.00
1573.61,671.00
1574.80,586.00
1575.98,856.00
1577.16,763.00
1578.34,929.00
1579.53,831.00
1580.71,568.00
1581.89,485.00
1583.07,416.00
1584.25,608.00
1585.43,719.00
1586.61,616.00
1587.78,583.00
1588.96,615.00
1590.14,670.00
1591.32,528.00
1592.49,320.00
1593.67,564.00
1594.84,698.00
1596.02,763.00
1597.19,569.00
1598.37,586.00
1599.54,274.00
1600.71,616.00
1601.88,582.00
1603.06,787.00
1604.23,686.00
1605.40,837.00
1606.57,622.00
1607.74,570.00
1608.91,648.00
1610.07,641.00
1611.24,546.00
1612.41,781.00
1613.58,648.00
1614.74,489.00
1615.91,299.00
1617.08,428.00
1618.24,892.00
1619.41,491.00
1620.57,597.00
1621.73,699.00
1622.90,535.00
1624.06,635.00
1625.22,358.00
1626.38,736.00
1627.54,502.00
1628.70,701.00
1629.87,623.00
1631.02,402.00
1632.18,625.00
1633.34,646.00
1634.50,492.00
1635.66,420.00
1636.82,789.00
1637.97,739.00
1639.13,402.00
1640.28,521.00
1641.44,716.00
1642.59,630.00
1643.75,347.00
1644.90,640.00
1646.06,674.00
1647.21,744.00
1648.36,508.00
1649.51,548.00
1650.66,543.00
1651.81,671.00
1652.97,419.00
1654.11,582.00
1655.26,489.00
1656.41,607.00
1657.56,675.00
1658.71,439.00
1659.86,386.00
1661.00,548.00
1662.15,373.00
1663.30,619.00
1664.44,470.00
1665.59,597.00
1666.73,463.00
1667.88,450.00
1669.02,528.00
1670.16,524.00
1671.30,553.00
1672.45,620.00
1673.59,273.00
1674.73,662.00
1675.87,618.00
1677.01,537.00
1678.15,509.00
1679.29,579.00
1680.43,552.00
1681.57,609.00
1682.70,661.00
1683.84,431.00
1684.98,317.00
1686.12,484.00
1687.25,414.00
1688.39,670.00
1689.52,483.00
1690.66,624.00
1691.79,591.00
1692.92,631.00
1694.06,480.00
1695.19,536.00
1696.32,593.00
1697.45,418.00
1698.58,515.00
1699.72,588.00
1700.85,518.00
1701.98,267.00
1703.10,417.00
1704.23,633.00
1705.36,554.00
1706.49,672.00
1707.62,580.00
1708.74,582.00
1709.87,215.00
1711.00,504.00
1712.12,560.00
1713.25,364.00
1714.37,495.00
1715.50,592.00
1716.62,498.00
1717.74,440.00
1718.87,687.00
1719.99,578.00
1721.11,413.00
1722.23,472.00
1723.35,402.00
1724.47,475.00
1725.59,593.00
1726.71,557.00
1727.83,534.00
1728.95,773.00
1730.07,226.00
1731.19,323.00
1732.30,536.00
1733.42,467.00
1734.54,336.00
1735.65,421.00
1736.77,368.00
1737.88,413.00
1739.00,549.00
1740.11,378.00
1741.23,475.00
1742.34,507.00
1743.45,436.00
1744.56,307.00
1745.68,479.00
1746.79,473.00
1747.90,585.00
1749.01,499.00
1750.12,444.00
1751.23,605.00
1752.34,191.00
1753.45,304.00
1754.55,287.00
1755.66,317.00
1756.77,282.00
1757.88,296.00
1758.98,258.00
1760.09,352.00
1761.19,445.00
1762.30,345.00
1763.40,531.00
1764.51,342.00
1765.61,350.00
1766.71,472.00
1767.82,356.00
1768.92,364.00
1770.02,539.00
1771.12,305.00
1772.22,285.00
1773.32,509.00
1774.42,330.00
1775.52,458.00
1776.62,317.00
1777.72,250.00
1778.82,535.00
1779.92,342.00
1781.01,502.00
1782.11,334.00
1783.21,167.00
1784.30,483.00
1785.40,319.00
1786.50,269.00
1787.59,203.00
1788.68,319.00
1789.78,364.00
1790.87,280.00
1791.96,502.00
1793.06,425.00
1794.15,370.00
1795.24,417.00
1796.33,345.00
1797.42,544.00
1798.51,411.00
1799.60,464.00
1800.69,405.00
1801.78,222.00
1802.87,494.00
1803.96,14.00
1805.05,301.00
1806.13,301.00
1807.22,478.00
1808.31,301.00
1809.39,261.00
1810.48,284.00
1811.56,384.00
1812.65,207.00
1813.73,361.00
1814.82,314.00
1815.90,147.00
1816.98,474.00
1818.07,472.00
1819.15,321.00
1820.23,337.00
1821.31,336.00
1822.39,248.00
1823.47,413.00
1824.55,354.00
1825.63,405.00
1826.71,273.00
1827.79,541.00
1828.87,339.00
1829.95,215.00
1831.02,295.00
1832.10,354.00
1833.18,230.00
1834.25,382.00
1835.33,391.00
1836.40,336.00
1837.48,309.00
1838.55,368.00
1839.63,442.00
1840.70,389.00
1841.77,309.00
1842.85,330.00
1843.92,240.00
1844.99,543.00
1846.06,165.00
1847.13,112.00
1848.20,231.00
1849.28,373.00
1850.34,399.00
1851.41,475.00
1852.48,416.00
1853.55,362.00
1854.62,288.00
1855.69,409.00
1856.76,347.00
1857.82,245.00
1858.89,327.00
1859.95,306.00
1861.02,315.00
1862.09,379.00
1863.15,315.00
1864.21,221.00
1865.28,316.00
1866.34,298.00
1867.41,357.00
1868.47,241.00
1869.53,331.00
1870.59,297.00
1871.65,343.00
1872.71,326.00
1873.78,346.00
1874.84,322.00
1875.90,298.00
1876.96,314.00
1878.01,318.00
1879.07,285.00
1880.13,186.00
1881.19,365.00
1882.25,95.00
1883.30,311.00
1884.36,356.00
1885.42,172.00
1886.47,235.00
1887.53,252.00
1888.58,243.00
1889.64,215.00
1890.69,302.00
1891.74,98.00
1892.80,385.00
1893.85,231.00
1894.90,307.00
1895.96,212.00
1897.01,307.00
1898.06,299.00
1899.11,224.00
1900.16,199.00
1901.21,404.00
1902.26,234.00
1903.31,331.00
1904.36,407.00
1905.41,159.00
1906.45,235.00
1907.50,293.00
1908.55,320.00
1909.60,175.00
1910.64,214.00
1911.69,196.00
1912.73,287.00
1913.78,404.00
1914.82,350.00
1915.87,163.00
1916.91,225.00
1917.96,198.00
1919.00,181.00
1920.04,321.00
1921.08,159.00
1922.13,176.00
1923.17,228.00
1924.21,205.00
1925.25,409.00
1926.29,208.00
1927.33,296.00
1928.37,14.00
1929.41,240.00
1930.45,149.00
1931.49,254.00
1932.53,308.00
1933.56,380.00
1934.60,150.00
1935.64,298.00
1936.67,271.00
1937.71,278.00
1938.75,192.00
1939.78,330.00
1940.82,141.00
1941.85,185.00
1942.89,130.00
1943.92,187.00
1944.95,248.00
1945.99,118.00
1947.02,186.00
1948.05,243.00
1949.08,163.00
1950.11,272.00
1951.15,119.00
1952.18,336.00
1953.21,189.00
1954.24,225.00
1955.27,135.00
1956.30,232.00
1957.32,195.00
1958.35,242.00
1959.38,162.00
1960.41,242.00
1961.44,106.00
1962.46,265.00
1963.49,164.00
1964.51,58.00
1965.54,74.00
1966.57,205.00
1967.59,-55.00
1968.62,265.00
1969.64,166.00
1970.66,207.00
1971.69,103.00
1972.71,131.00
1973.73,13.00
1974.75,239.00
1975.78,147.00
1976.80,185.00
1977.82,233.00
1978.84,115.00
1979.86,112.00
1980.88,135.00
1981.90,227.00
1982.92,145.00
1983.94,109.00
1984.96,297.00
1985.98,195.00
1986.99,183.00
1988.01,260.00
1989.03,208.00
1990.04,131.00
1991.06,165.00
1992.08,163.00
1993.09,225.00
1994.11,33.00
1995.12,162.00
1996.14,170.00
1997.15,195.00
1998.16,328.00
1999.18,208.00
2000.19,313.00
2001.20,215.00
2002.21,71.00
2003.23,160.00
2004.24,-36.00
2005.25,146.00
2006.26,149.00
2007.27,244.00
2008.28,200.00
2009.29,149.00
2010.30,242.00
2011.31,161.00
2012.32,99.00
2013.32,143.00
2014.33,136.00
2015.34,117.00
2016.35,86.00
2017.35,-4.00
2018.36,-27.00
2019.36,120.00
2020.37,189.00
2021.38,66.00
2022.38,124.00
2023.38,-8.00
2024.39,277.00
2025.39,281.00
2026.40,104.00
2027.40,110.00
2028.40,182.00
2029.40,264.00
2030.41,159.00
2031.41,193.00
2032.41,170.00
2033.41,143.00
2034.41,40.00
2035.41,252.00
2036.41,83.00
2037.41,215.00
2038.41,168.00
2039.41,145.00
2040.40,235.00
2041.40,102.00
2042.40,196.00
2043.40,160.00
2044.39,227.00
2045.39,111.00
2046.39,228.00
2047.38,159.00
2048.38,111.00
2049.37,170.00
2050.37,138.00
2051.36,202.00
2052.36,102.00
2053.35,143.00
2054.34,130.00
2055.34,48.00
2056.33,153.00
2057.32,148.00
2058.31,110.00
2059.30,96.00
2060.30,139.00
2061.29,119.00
2062.28,104.00
2063.27,111.00
2064.26,245.00
2065.25,50.00
2066.23,82.00
2067.22,136.00
2068.21,138.00
2069.20,39.00
2070.19,-62.00
2071.17,72.00
2072.16,109.00
2073.15,153.00
2074.13,77.00
2075.12,161.00
2076.11,185.00
2077.09,166.00
2078.08,70.00
2079.06,199.00
2080.04,197.00
2081.03,99.00
2082.01,66.00
2083.00,81.00
2083.98,48.00
2084.96,159.00
2085.94,40.00
2086.92,76.00
2087.91,61.00
2088.89,24.00
2089.87,52.00
2090.85,112.00
2091.83,123.00
2092.81,-61.00
2093.79,69.00
2094.77,110.00
2095.74,-48.00
2096.72,42.00
2097.70,74.00
2098.68,37.00
2099.66,-26.00
2100.63,65.00
2101.61,-28.00
2102.59,122.00
2103.56,218.00
2104.54,165.00
2105.51,116.00
2106.49,144.00
2107.46,58.00
2108.44,-3.00
2109.41,68.00
2110.38,35.00
2111.36,-18.00
2112.33,63.00
2113.30,53.00
2114.27,35.00
2115.25,89.00
2116.22,112.00
2117.19,27.00
2118.16,-85.00
2119.13,109.00
2120.10,18.00
2121.07,117.00
2122.04,1.00
2123.01,43.00
2123.98,68.00
2124.95,69.00
2125.91,157.00
2126.88,60.00
2127.85,-55.00
2128.82,103.00
2129.78,69.00
2130.75,-24.00
2131.72,39.00
2132.68,109.00
2133.65,87.00
2134.61,58.00
2135.58,76.00
2136.54,28.00
2137.51,-19.00
2138.47,-27.00
2139.43,46.00
2140.40,46.00
2141.36,52.00
2142.32,-152.00
2143.29,40.00
2144.25,-6.00
2145.21,62.00
2146.17,-58.00
2147.13,-27.00
2148.09,87.00
2149.05,46.00
2150.01,86.00
2150.97,78.00
2151.93,-57.00
2152.89,-3.00
2153.85,-22.00
2154.81,-15.00
2155.76,-64.00
2156.72,51.00
2157.68,-8.00
2158.64,20.00
2159.59,66.00
2160.55,41.00
2161.51,43.00
2162.46,72.00
2163.42,-20.00
2164.37,-50.00
2165.33,-20.00
2166.28,78.00
2167.24,-1.00
2168.19,-15.00
2169.14,75.00
2170.10,54.00
2171.05,-50.00
2172.00,-93.00
2172.95,-82.00
2173.91,124.00
2174.86,76.00
2175.81,4.00
2176.76,67.00
2177.71,-6.00
2178.66,-116.00
2179.61,20.00
2180.56,-56.00
2181.51,82.00
2182.46,90.00
2183.41,88.00
2184.36,10.00
2185.30,9.00
2186.25,51.00
2187.20,65.00
2188.15,22.00
2189.09,43.00
2190.04,8.00
2190.99,-56.00
2191.93,54.00
2192.88,22.00
2193.82,-90.00
2194.77,36.00
2195.71,21.00
2196.66,-38.00
2197.60,40.00
2198.54,33.00
2199.49,-27.00
2200.43,24.00
2201.37,44.00
2202.32,40.00
2203.26,1.00
2204.20,191.00
2205.14,47.00
2206.08,93.00
2207.02,-23.00
2207.96,77.00
2208.90,29.00
2209.84,78.00
2210.78,48.00
2211.72,-70.00
2212.66,-52.00
2213.60,-55.00
2214.54,67.00
2215.48,71.00
2216.42,53.00
2217.35,-29.00
2218.29,42.00
2219.23,0.00
2220.16,16.00
2221.10,61.00
2222.04,2.00
2222.97,146.00
2223.91,42.00
2224.84,21.00
2225.78,1.00
2226.71,-48.00
2227.65,41.00
2228.58,128.00
2229.51,-24.00
2230.45,9.00
2231.38,-35.00
2232.31,46.00
2233.24,2.00
2234.18,95.00
2235.11,23.00
2236.04,3.00
2236.97,-33.00
2237.90,-4.00
2238.83,149.00
2239.76,105.00
2240.69,37.00
2241.62,40.00
2242.55,31.00
2243.48,-6.00
2244.41,68.00
2245.34,27.00
2246.27,55.00
2247.19,54.00
2248.12,12.00
2249.05,127.00
2249.98,44.00
2250.90,96.00
2251.83,30.00
2252.75,160.00
2253.68,64.00
2254.61,88.00
2255.53,85.00
2256.46,22.00
2257.38,14.00
2258.31,200.00
2259.23,25.00
2260.15,-45.00
2261.08,55.00
2262.00,-14.00
2262.92,-29.00
2263.85,111.00
2264.77,51.00
2265.69,-32.00
2266.61,138.00
2267.53,94.00
2268.45,128.00
2269.37,6.00
2270.30,58.00
2271.22,126.00
2272.14,-81.00
2273.05,14.00
2273.97,68.00
2274.89,38.00
2275.81,-17.00
2276.73,104.00
2277.65,44.00
2278.57,21.00
2279.48,82.00
2280.40,91.00
2281.32,118.00
2282.24,22.00
2283.15,65.00
2284.07,116.00
2284.98,-24.00
2285.90,40.00
2286.82,44.00
2287.73,40.00
2288.65,-49.00
2289.56,86.00
2290.47,-79.00
2291.39,44.00
2292.30,-120.00
2293.21,-11.00
2294.13,22.00
2295.04,83.00
2295.95,126.00
2296.87,88.00
2297.78,53.00
2298.69,62.00
2299.60,-2.00
2300.51,-9.00
2301.42,-74.00
2302.33,-1.00
2303.24,81.00
2304.15,144.00
2305.06,-32.00
2305.97,7.00
2306.88,188.00
2307.79,-11.00
2308.70,101.00
2309.61,48.00
2310.51,64.00
2311.42,62.00
2312.33,127.00
2313.24,21.00
2314.14,-80.00
2315.05,-4.00
2315.96,93.00
2316.86,37.00
2317.77,-33.00
2318.67,100.00
2319.58,-12.00
2320.48,54.00
2321.39,-77.00
2322.29,-33.00
2323.20,67.00
2324.10,49.00
2325.00,28.00
2325.91,24.00
2326.81,-67.00
2327.71,-18.00
2328.62,120.00
2329.52,19.00
2330.42,-33.00
2331.32,21.00
2332.22,-38.00
2333.12,38.00
2334.03,53.00
2334.93,-32.00
2335.83,-1.00
2336.73,-29.00
2337.63,24.00
2338.53,10.00
2339.42,59.00
2340.32,30.00
2341.22,41.00
2342.12,73.00
2343.02,-37.00
2343.92,17.00
2344.81,15.00
2345.71,68.00
2346.61,-45.00
2347.51,101.00
2348.40,-23.00
2349.30,-2.00
2350.19,2.00
2351.09,45.00
2351.98,17.00
2352.88,13.00
2353.77,-113.00
2354.67,46.00
2355.56,-66.00
2356.46,-8.00
2357.35,-36.00
2358.25,87.00
2359.14,31.00
2360.03,-56.00
2360.92,20.00
2361.82,21.00
2362.71,-15.00
2363.60,-44.00
2364.49,-3.00
2365.38,13.00
2366.28,3.00
2367.17,3.00
2368.06,39.00
2368.95,-1.00
2369.84,106.00
2370.73,48.00
2371.62,28.00
2372.51,45.00
2373.40,41.00
2374.28,38.00
2375.17,27.00
2376.06,173.00
2376.95,58.00
2377.84,83.00
2378.72,-9.00
2379.61,46.00
2380.50,76.00
2381.39,44.00
2382.27,34.00
2383.16,21.00
2384.04,85.00
2384.93,-8.00
2385.81,-39.00
2386.70,68.00
2387.59,72.00
2388.47,-80.00
2389.35,-22.00
2390.24,80.00
2391.12,117.00
2392.01,-103.00
2392.89,103.00
2393.77,40.00
2394.66,173.00
2395.54,-56.00
2396.42,91.00
2397.30,-3.00
2398.18,35.00
2399.07,13.00
2399.95,-30.00
2400.83,134.00
2401.71,48.00
2402.59,-9.00
2403.47,29.00
2404.35,62.00
2405.23,36.00
2406.11,6.00
2406.99,-15.00
2407.87,-3.00
2408.75,54.00
2409.62,51.00
2410.50,69.00
2411.38,-7.00
2412.26,86.00
2413.14,2.00
2414.01,-104.00
2414.89,17.00
2415.77,87.00
2416.64,-61.00
2417.52,56.00
2418.40,13.00
2419.27,-69.00
2420.15,89.00
2421.02,-146.00
2421.90,81.00
2422.77,47.00
2423.65,-110.00
2424.52,122.00
2425.40,38.00
2426.27,-3.00
2427.14,70.00
2428.02,-24.00
2428.89,-142.00
2429.76,18.00
2430.64,21.00
2431.51,40.00
2432.38,72.00
2433.25,-108.00
2434.12,54.00
2434.99,18.00
2435.87,8.00
2436.74,-101.00
2437.61,49.00
2438.48,7.00
2439.35,65.00
2440.22,-87.00
2441.09,-31.00
2441.96,-19.00
2442.83,-85.00
2443.69,-101.00
2444.56,93.00
2445.43,-94.00
2446.30,-34.00
2447.17,77.00
2448.04,26.00
2448.90,-39.00
2449.77,-15.00
2450.64,20.00
2451.50,26.00
2452.37,70.00
2453.24,40.00
2454.10,12.00
2454.97,4.00
2455.83,58.00
2456.70,-20.00
2457.56,-28.00
2458.43,12.00
2459.29,15.00
2460.16,-16.00
2461.02,67.00
2461.89,48.00
2462.75,-50.00
2463.61,17.00
2464.48,17.00
2465.34,22.00
2466.20,70.00
2467.06,-3.00
2467.93,-38.00
2468.79,94.00
2469.65,50.00
2470.51,41.00
2471.37,-36.00
2472.23,-6.00
2473.10,62.00
2473.96,100.00
2474.82,32.00
2475.68,58.00
2476.54,187.00
2477.40,-10.00
2478.26,89.00
2479.11,43.00
2479.97,51.00
2480.83,49.00
2481.69,-20.00
2482.55,-53.00
2483.41,133.00
2484.26,49.00
2485.12,-51.00
2485.98,-99.00
2486.84,56.00
2487.69,186.00
2488.55,-56.00
2489.41,36.00
2490.26,12.00
2491.12,75.00
2491.97,-36.00
2492.83,95.00
2493.68,50.00
2494.54,-14.00
2495.39,4.00
2496.25,45.00
2497.10,53.00
2497.96,145.00
2498.81,-3.00
2499.67,16.00
2500.52,-8.00
2501.37,39.00
2502.22,13.00
2503.08,50.00
2503.93,-9.00
2504.78,163.00
2505.63,38.00
2506.49,113.00
2507.34,176.00
2508.19,41.00
2509.04,77.00
2509.89,111.00
2510.74,77.00
2511.59,40.00
2512.44,169.00
2513.29,174.00
2514.14,-88.00
2514.99,112.00
2515.84,25.00
2516.69,66.00
2517.54,73.00
2518.39,66.00
2519.24,-34.00
2520.08,40.00
2520.93,184.00
2521.78,54.00
2522.63,117.00
2523.48,53.00
2524.32,60.00
2525.17,-20.00
2526.02,7.00
2526.86,45.00
2527.71,80.00
2528.56,119.00
2529.40,0.00
2530.25,38.00
2531.09,51.00
2531.94,10.00
2532.78,-30.00
2533.63,45.00
2534.47,0.00
2535.32,5.00
2536.16,-12.00
2537.00,84.00
2537.85,39.00
2538.69,91.00
2539.53,50.00
2540.38,42.00
2541.22,-50.00
2542.06,69.00
2542.90,67.00
2543.75,151.00
2544.59,56.00
2545.43,66.00
2546.27,-45.00
2547.11,80.00
2547.95,71.00
2548.79,136.00
2549.64,92.00
2550.48,74.00
2551.32,23.00
2552.16,168.00
2553.00,110.00
2553.84,143.00
2554.67,-47.00
2555.51,161.00
2556.35,102.00
2557.19,71.00
2558.03,77.00
2558.87,100.00
2559.71,-1.00
2560.54,85.00
2561.38,96.00
2562.22,83.00
2563.06,57.00
2563.89,99.00
2564.73,6.00
2565.57,65.00
2566.40,68.00
2567.24,94.00
2568.07,21.00
2568.91,63.00
2569.75,118.00
2570.58,92.00
2571.42,52.00
2572.25,-26.00
2573.09,7.00
2573.92,171.00
2574.75,5.00
2575.59,-17.00
2576.42,-75.00
2577.26,-4.00
2578.09,39.00
2578.92,41.00
2579.76,114.00
2580.59,3.00
2581.42,109.00
2582.25,74.00
2583.09,50.00
2583.92,115.00
2584.75,96.00
2585.58,86.00
2586.41,-10.00
2587.24,62.00
2588.07,13.00
2588.91,55.00
2589.74,46.00
2590.57,87.00
2591.40,117.00
2592.23,102.00
2593.06,124.00
2593.89,89.00
2594.72,76.00
2595.54,146.00
2596.37,32.00
2597.20,152.00
2598.03,98.00
2598.86,-7.00
2599.69,12.00
2600.52,115.00
2601.34,-26.00
2602.17,17.00
2603.00,117.00
2603.82,124.00
2604.65,100.00
2605.48,113.00
2606.30,133.00
2607.13,134.00
2607.96,47.00
2608.78,138.00
2609.61,25.00
2610.43,113.00
2611.26,228.00
2612.08,165.00
2612.91,196.00
2613.73,-35.00
2614.56,189.00
2615.38,117.00
2616.21,111.00
2617.03,174.00
2617.86,34.00
2618.68,93.00
2619.50,147.00
2620.33,90.00
2621.15,96.00
2621.97,115.00
2622.79,154.00
2623.62,84.00
2624.44,35.00
2625.26,74.00
2626.08,136.00
2626.90,60.00
2627.72,136.00
2628.55,130.00
2629.37,139.00
2630.19,131.00
2631.01,251.00
2631.83,100.00
2632.65,90.00
2633.47,58.00
2634.29,64.00
2635.11,106.00
2635.93,112.00
2636.75,41.00
2637.57,99.00
2638.39,101.00
2639.20,103.00
2640.02,202.00
2640.84,-6.00
2641.66,168.00
2642.48,140.00
2643.29,155.00
2644.11,126.00
2644.93,123.00
2645.75,66.00
2646.56,131.00
2647.38,20.00
2648.20,103.00
2649.01,0.00
2649.83,0.00
2650.65,0.00
2651.46,0.00
2652.28,0.00
